#  E (eV)   dos(E)     Int dos(E) EFermi =   -1.660 eV
 -31.045  0.1025E-02  0.1025E-04
 -31.035  0.1584E-02  0.2609E-04
 -31.025  0.2423E-02  0.5032E-04
 -31.015  0.3667E-02  0.8699E-04
 -31.005  0.5489E-02  0.1419E-03
 -30.995  0.8130E-02  0.2232E-03
 -30.985  0.1191E-01  0.3423E-03
 -30.975  0.1726E-01  0.5149E-03
 -30.965  0.2476E-01  0.7625E-03
 -30.955  0.3512E-01  0.1114E-02
 -30.945  0.4929E-01  0.1607E-02
 -30.935  0.6845E-01  0.2291E-02
 -30.925  0.9404E-01  0.3231E-02
 -30.915  0.1278E+00  0.4510E-02
 -30.905  0.1719E+00  0.6229E-02
 -30.895  0.2287E+00  0.8516E-02
 -30.885  0.3011E+00  0.1153E-01
 -30.875  0.3923E+00  0.1545E-01
 -30.865  0.5057E+00  0.2051E-01
 -30.855  0.6450E+00  0.2696E-01
 -30.845  0.8142E+00  0.3510E-01
 -30.835  0.1017E+01  0.4527E-01
 -30.825  0.1258E+01  0.5785E-01
 -30.815  0.1539E+01  0.7324E-01
 -30.805  0.1864E+01  0.9188E-01
 -30.795  0.2235E+01  0.1142E+00
 -30.785  0.2653E+01  0.1408E+00
 -30.775  0.3119E+01  0.1720E+00
 -30.765  0.3630E+01  0.2083E+00
 -30.755  0.4184E+01  0.2501E+00
 -30.745  0.4778E+01  0.2979E+00
 -30.735  0.5404E+01  0.3519E+00
 -30.725  0.6057E+01  0.4125E+00
 -30.715  0.6729E+01  0.4798E+00
 -30.705  0.7409E+01  0.5539E+00
 -30.695  0.8089E+01  0.6348E+00
 -30.685  0.8759E+01  0.7224E+00
 -30.675  0.9409E+01  0.8164E+00
 -30.665  0.1003E+02  0.9167E+00
 -30.655  0.1061E+02  0.1023E+01
 -30.645  0.1114E+02  0.1134E+01
 -30.635  0.1162E+02  0.1250E+01
 -30.625  0.1204E+02  0.1371E+01
 -30.615  0.1240E+02  0.1495E+01
 -30.605  0.1269E+02  0.1622E+01
 -30.595  0.1290E+02  0.1751E+01
 -30.585  0.1305E+02  0.1881E+01
 -30.575  0.1311E+02  0.2012E+01
 -30.565  0.1311E+02  0.2144E+01
 -30.555  0.1302E+02  0.2274E+01
 -30.545  0.1287E+02  0.2402E+01
 -30.535  0.1264E+02  0.2529E+01
 -30.525  0.1234E+02  0.2652E+01
 -30.515  0.1197E+02  0.2772E+01
 -30.505  0.1154E+02  0.2887E+01
 -30.495  0.1105E+02  0.2998E+01
 -30.485  0.1050E+02  0.3103E+01
 -30.475  0.9913E+01  0.3202E+01
 -30.465  0.9287E+01  0.3295E+01
 -30.455  0.8633E+01  0.3381E+01
 -30.445  0.7961E+01  0.3461E+01
 -30.435  0.7280E+01  0.3533E+01
 -30.425  0.6600E+01  0.3599E+01
 -30.415  0.5932E+01  0.3659E+01
 -30.405  0.5283E+01  0.3712E+01
 -30.395  0.4662E+01  0.3758E+01
 -30.385  0.4076E+01  0.3799E+01
 -30.375  0.3530E+01  0.3834E+01
 -30.365  0.3027E+01  0.3865E+01
 -30.355  0.2570E+01  0.3890E+01
 -30.345  0.2161E+01  0.3912E+01
 -30.335  0.1799E+01  0.3930E+01
 -30.325  0.1482E+01  0.3945E+01
 -30.315  0.1209E+01  0.3957E+01
 -30.305  0.9758E+00  0.3967E+01
 -30.295  0.7796E+00  0.3974E+01
 -30.285  0.6164E+00  0.3981E+01
 -30.275  0.4823E+00  0.3985E+01
 -30.265  0.3734E+00  0.3989E+01
 -30.255  0.2860E+00  0.3992E+01
 -30.245  0.2168E+00  0.3994E+01
 -30.235  0.1626E+00  0.3996E+01
 -30.225  0.1207E+00  0.3997E+01
 -30.215  0.8860E-01  0.3998E+01
 -30.205  0.6436E-01  0.3998E+01
 -30.195  0.4626E-01  0.3999E+01
 -30.185  0.3289E-01  0.3999E+01
 -30.175  0.2314E-01  0.3999E+01
 -30.165  0.1610E-01  0.4000E+01
 -30.155  0.1109E-01  0.4000E+01
 -30.145  0.7552E-02  0.4000E+01
 -30.135  0.5089E-02  0.4000E+01
 -30.125  0.3393E-02  0.4000E+01
 -30.115  0.2239E-02  0.4000E+01
 -30.105  0.1462E-02  0.4000E+01
 -30.095  0.9466E-03  0.4000E+01
 -30.085  0.6094E-03  0.4000E+01
 -30.075  0.3934E-03  0.4000E+01
 -30.065  0.2602E-03  0.4000E+01
 -30.055  0.1851E-03  0.4000E+01
 -30.045  0.1536E-03  0.4000E+01
 -30.035  0.1594E-03  0.4000E+01
 -30.025  0.2037E-03  0.4000E+01
 -30.015  0.2953E-03  0.4000E+01
 -30.005  0.4514E-03  0.4000E+01
 -29.995  0.7008E-03  0.4000E+01
 -29.985  0.1087E-02  0.4000E+01
 -29.975  0.1675E-02  0.4000E+01
 -29.965  0.2555E-02  0.4000E+01
 -29.955  0.3859E-02  0.4000E+01
 -29.945  0.5767E-02  0.4000E+01
 -29.935  0.8525E-02  0.4000E+01
 -29.925  0.1247E-01  0.4000E+01
 -29.915  0.1804E-01  0.4001E+01
 -29.905  0.2582E-01  0.4001E+01
 -29.895  0.3656E-01  0.4001E+01
 -29.885  0.5121E-01  0.4002E+01
 -29.875  0.7095E-01  0.4002E+01
 -29.865  0.9726E-01  0.4003E+01
 -29.855  0.1319E+00  0.4005E+01
 -29.845  0.1769E+00  0.4006E+01
 -29.835  0.2348E+00  0.4009E+01
 -29.825  0.3082E+00  0.4012E+01
 -29.815  0.4002E+00  0.4016E+01
 -29.805  0.5142E+00  0.4021E+01
 -29.795  0.6535E+00  0.4028E+01
 -29.785  0.8216E+00  0.4036E+01
 -29.775  0.1022E+01  0.4046E+01
 -29.765  0.1257E+01  0.4059E+01
 -29.755  0.1530E+01  0.4074E+01
 -29.745  0.1842E+01  0.4092E+01
 -29.735  0.2195E+01  0.4114E+01
 -29.725  0.2586E+01  0.4140E+01
 -29.715  0.3014E+01  0.4170E+01
 -29.705  0.3476E+01  0.4205E+01
 -29.695  0.3965E+01  0.4245E+01
 -29.685  0.4474E+01  0.4289E+01
 -29.675  0.4995E+01  0.4339E+01
 -29.665  0.5516E+01  0.4394E+01
 -29.655  0.6027E+01  0.4455E+01
 -29.645  0.6513E+01  0.4520E+01
 -29.635  0.6964E+01  0.4590E+01
 -29.625  0.7365E+01  0.4663E+01
 -29.615  0.7706E+01  0.4740E+01
 -29.605  0.7976E+01  0.4820E+01
 -29.595  0.8167E+01  0.4902E+01
 -29.585  0.8272E+01  0.4984E+01
 -29.575  0.8289E+01  0.5067E+01
 -29.565  0.8217E+01  0.5149E+01
 -29.555  0.8058E+01  0.5230E+01
 -29.545  0.7817E+01  0.5308E+01
 -29.535  0.7502E+01  0.5383E+01
 -29.525  0.7122E+01  0.5454E+01
 -29.515  0.6689E+01  0.5521E+01
 -29.505  0.6215E+01  0.5583E+01
 -29.495  0.5714E+01  0.5641E+01
 -29.485  0.5197E+01  0.5693E+01
 -29.475  0.4678E+01  0.5739E+01
 -29.465  0.4167E+01  0.5781E+01
 -29.455  0.3675E+01  0.5818E+01
 -29.445  0.3210E+01  0.5850E+01
 -29.435  0.2779E+01  0.5878E+01
 -29.425  0.2388E+01  0.5902E+01
 -29.415  0.2041E+01  0.5922E+01
 -29.405  0.1740E+01  0.5939E+01
 -29.395  0.1487E+01  0.5954E+01
 -29.385  0.1283E+01  0.5967E+01
 -29.375  0.1128E+01  0.5978E+01
 -29.365  0.1021E+01  0.5989E+01
 -29.355  0.9637E+00  0.5998E+01
 -29.345  0.9546E+00  0.6008E+01
 -29.335  0.9941E+00  0.6018E+01
 -29.325  0.1082E+01  0.6029E+01
 -29.315  0.1219E+01  0.6041E+01
 -29.305  0.1405E+01  0.6055E+01
 -29.295  0.1640E+01  0.6071E+01
 -29.285  0.1923E+01  0.6090E+01
 -29.275  0.2253E+01  0.6113E+01
 -29.265  0.2628E+01  0.6139E+01
 -29.255  0.3044E+01  0.6170E+01
 -29.245  0.3497E+01  0.6205E+01
 -29.235  0.3980E+01  0.6244E+01
 -29.225  0.4485E+01  0.6289E+01
 -29.215  0.5002E+01  0.6339E+01
 -29.205  0.5522E+01  0.6394E+01
 -29.195  0.6030E+01  0.6455E+01
 -29.185  0.6516E+01  0.6520E+01
 -29.175  0.6965E+01  0.6590E+01
 -29.165  0.7366E+01  0.6663E+01
 -29.155  0.7707E+01  0.6740E+01
 -29.145  0.7977E+01  0.6820E+01
 -29.135  0.8167E+01  0.6902E+01
 -29.125  0.8272E+01  0.6984E+01
 -29.115  0.8289E+01  0.7067E+01
 -29.105  0.8217E+01  0.7150E+01
 -29.095  0.8057E+01  0.7230E+01
 -29.085  0.7816E+01  0.7308E+01
 -29.075  0.7500E+01  0.7383E+01
 -29.065  0.7120E+01  0.7454E+01
 -29.055  0.6687E+01  0.7521E+01
 -29.045  0.6212E+01  0.7583E+01
 -29.035  0.5709E+01  0.7641E+01
 -29.025  0.5191E+01  0.7692E+01
 -29.015  0.4669E+01  0.7739E+01
 -29.005  0.4154E+01  0.7781E+01
 -28.995  0.3656E+01  0.7817E+01
 -28.985  0.3184E+01  0.7849E+01
 -28.975  0.2743E+01  0.7877E+01
 -28.965  0.2338E+01  0.7900E+01
 -28.955  0.1972E+01  0.7920E+01
 -28.945  0.1645E+01  0.7936E+01
 -28.935  0.1359E+01  0.7950E+01
 -28.925  0.1113E+01  0.7961E+01
 -28.915  0.9027E+00  0.7970E+01
 -28.905  0.7276E+00  0.7977E+01
 -28.895  0.5844E+00  0.7983E+01
 -28.885  0.4704E+00  0.7988E+01
 -28.875  0.3830E+00  0.7992E+01
 -28.865  0.3200E+00  0.7995E+01
 -28.855  0.2795E+00  0.7997E+01
 -28.845  0.2603E+00  0.8000E+01
 -28.835  0.2620E+00  0.8003E+01
 -28.825  0.2848E+00  0.8006E+01
 -28.815  0.3295E+00  0.8009E+01
 -28.805  0.3978E+00  0.8013E+01
 -28.795  0.4921E+00  0.8018E+01
 -28.785  0.6152E+00  0.8024E+01
 -28.775  0.7706E+00  0.8032E+01
 -28.765  0.9621E+00  0.8041E+01
 -28.755  0.1194E+01  0.8053E+01
 -28.745  0.1469E+01  0.8068E+01
 -28.735  0.1792E+01  0.8086E+01
 -28.725  0.2166E+01  0.8107E+01
 -28.715  0.2593E+01  0.8133E+01
 -28.705  0.3075E+01  0.8164E+01
 -28.695  0.3611E+01  0.8200E+01
 -28.685  0.4201E+01  0.8242E+01
 -28.675  0.4842E+01  0.8291E+01
 -28.665  0.5529E+01  0.8346E+01
 -28.655  0.6255E+01  0.8409E+01
 -28.645  0.7013E+01  0.8479E+01
 -28.635  0.7792E+01  0.8557E+01
 -28.625  0.8583E+01  0.8642E+01
 -28.615  0.9371E+01  0.8736E+01
 -28.605  0.1015E+02  0.8838E+01
 -28.595  0.1089E+02  0.8946E+01
 -28.585  0.1159E+02  0.9062E+01
 -28.575  0.1224E+02  0.9185E+01
 -28.565  0.1282E+02  0.9313E+01
 -28.555  0.1333E+02  0.9446E+01
 -28.545  0.1374E+02  0.9584E+01
 -28.535  0.1405E+02  0.9724E+01
 -28.525  0.1426E+02  0.9867E+01
 -28.515  0.1437E+02  0.1001E+02
 -28.505  0.1436E+02  0.1015E+02
 -28.495  0.1424E+02  0.1030E+02
 -28.485  0.1401E+02  0.1044E+02
 -28.475  0.1368E+02  0.1057E+02
 -28.465  0.1326E+02  0.1071E+02
 -28.455  0.1274E+02  0.1083E+02
 -28.445  0.1215E+02  0.1095E+02
 -28.435  0.1149E+02  0.1107E+02
 -28.425  0.1078E+02  0.1118E+02
 -28.415  0.1003E+02  0.1128E+02
 -28.405  0.9256E+01  0.1137E+02
 -28.395  0.8467E+01  0.1146E+02
 -28.385  0.7677E+01  0.1153E+02
 -28.375  0.6900E+01  0.1160E+02
 -28.365  0.6146E+01  0.1166E+02
 -28.355  0.5425E+01  0.1172E+02
 -28.345  0.4745E+01  0.1176E+02
 -28.335  0.4111E+01  0.1181E+02
 -28.325  0.3529E+01  0.1184E+02
 -28.315  0.3000E+01  0.1187E+02
 -28.305  0.2526E+01  0.1190E+02
 -28.295  0.2106E+01  0.1192E+02
 -28.285  0.1738E+01  0.1193E+02
 -28.275  0.1421E+01  0.1195E+02
 -28.265  0.1150E+01  0.1196E+02
 -28.255  0.9212E+00  0.1197E+02
 -28.245  0.7306E+00  0.1198E+02
 -28.235  0.5735E+00  0.1198E+02
 -28.225  0.4455E+00  0.1199E+02
 -28.215  0.3426E+00  0.1199E+02
 -28.205  0.2607E+00  0.1199E+02
 -28.195  0.1964E+00  0.1199E+02
 -28.185  0.1463E+00  0.1200E+02
 -28.175  0.1079E+00  0.1200E+02
 -28.165  0.7877E-01  0.1200E+02
 -28.155  0.5688E-01  0.1200E+02
 -28.145  0.4064E-01  0.1200E+02
 -28.135  0.2873E-01  0.1200E+02
 -28.125  0.2010E-01  0.1200E+02
 -28.115  0.1391E-01  0.1200E+02
 -28.105  0.9527E-02  0.1200E+02
 -28.095  0.6455E-02  0.1200E+02
 -28.085  0.4327E-02  0.1200E+02
 -28.075  0.2870E-02  0.1200E+02
 -28.065  0.1883E-02  0.1200E+02
 -28.055  0.1222E-02  0.1200E+02
 -28.045  0.7849E-03  0.1200E+02
 -28.035  0.4987E-03  0.1200E+02
 -28.025  0.3135E-03  0.1200E+02
 -28.015  0.1949E-03  0.1200E+02
 -28.005  0.1199E-03  0.1200E+02
 -27.995  0.7298E-04  0.1200E+02
 -27.985  0.4394E-04  0.1200E+02
 -27.975  0.2617E-04  0.1200E+02
 -27.965  0.1542E-04  0.1200E+02
 -27.955  0.8991E-05  0.1200E+02
 -27.945  0.5185E-05  0.1200E+02
 -27.935  0.2958E-05  0.1200E+02
 -27.925  0.1670E-05  0.1200E+02
 -27.915  0.9322E-06  0.1200E+02
 -27.905  0.5149E-06  0.1200E+02
 -27.895  0.2814E-06  0.1200E+02
 -27.885  0.1521E-06  0.1200E+02
 -27.875  0.8133E-07  0.1200E+02
 -27.865  0.4302E-07  0.1200E+02
 -27.855  0.2252E-07  0.1200E+02
 -27.845  0.1166E-07  0.1200E+02
 -27.835  0.5970E-08  0.1200E+02
 -27.825  0.3025E-08  0.1200E+02
 -27.815  0.1516E-08  0.1200E+02
 -27.805  0.7517E-09  0.1200E+02
 -27.795  0.3687E-09  0.1200E+02
 -27.785  0.1789E-09  0.1200E+02
 -27.775  0.8588E-10  0.1200E+02
 -27.765  0.4078E-10  0.1200E+02
 -27.755  0.1916E-10  0.1200E+02
 -27.745  0.8903E-11  0.1200E+02
 -27.735  0.4093E-11  0.1200E+02
 -27.725  0.1861E-11  0.1200E+02
 -27.715  0.8375E-12  0.1200E+02
 -27.705  0.3727E-12  0.1200E+02
 -27.695  0.1641E-12  0.1200E+02
 -27.685  0.7148E-13  0.1200E+02
 -27.675  0.3080E-13  0.1200E+02
 -27.665  0.1313E-13  0.1200E+02
 -27.655  0.5535E-14  0.1200E+02
 -27.645  0.2309E-14  0.1200E+02
 -27.635  0.9528E-15  0.1200E+02
 -27.625  0.3889E-15  0.1200E+02
 -27.615  0.1571E-15  0.1200E+02
 -27.605  0.6275E-16  0.1200E+02
 -27.595  0.2480E-16  0.1200E+02
 -27.585  0.9694E-17  0.1200E+02
 -27.575  0.3749E-17  0.1200E+02
 -27.565  0.1434E-17  0.1200E+02
 -27.555  0.5429E-18  0.1200E+02
 -27.545  0.2033E-18  0.1200E+02
 -27.535  0.7529E-19  0.1200E+02
 -27.525  0.2759E-19  0.1200E+02
 -27.515  0.1000E-19  0.1200E+02
 -27.505  0.3586E-20  0.1200E+02
 -27.495  0.1272E-20  0.1200E+02
 -27.485  0.4464E-21  0.1200E+02
 -27.475  0.1550E-21  0.1200E+02
 -27.465  0.5321E-22  0.1200E+02
 -27.455  0.1808E-22  0.1200E+02
 -27.445  0.6075E-23  0.1200E+02
 -27.435  0.2020E-23  0.1200E+02
 -27.425  0.6643E-24  0.1200E+02
 -27.415  0.2161E-24  0.1200E+02
 -27.405  0.6956E-25  0.1200E+02
 -27.395  0.2215E-25  0.1200E+02
 -27.385  0.6977E-26  0.1200E+02
 -27.375  0.2174E-26  0.1200E+02
 -27.365  0.6701E-27  0.1200E+02
 -27.355  0.2043E-27  0.1200E+02
 -27.345  0.6164E-28  0.1200E+02
 -27.335  0.1839E-28  0.1200E+02
 -27.325  0.5430E-29  0.1200E+02
 -27.315  0.1586E-29  0.1200E+02
 -27.305  0.4581E-30  0.1200E+02
 -27.295  0.1309E-30  0.1200E+02
 -27.285  0.3702E-31  0.1200E+02
 -27.275  0.1035E-31  0.1200E+02
 -27.265  0.2864E-32  0.1200E+02
 -27.255  0.7840E-33  0.1200E+02
 -27.245  0.2123E-33  0.1200E+02
 -27.235  0.5686E-34  0.1200E+02
 -27.225  0.1507E-34  0.1200E+02
 -27.215  0.3949E-35  0.1200E+02
 -27.205  0.1024E-35  0.1200E+02
 -27.195  0.2627E-36  0.1200E+02
 -27.185  0.6667E-37  0.1200E+02
 -27.175  0.1674E-37  0.1200E+02
 -27.165  0.4156E-38  0.1200E+02
 -27.155  0.1021E-38  0.1200E+02
 -27.145  0.2482E-39  0.1200E+02
 -27.135  0.5966E-40  0.1200E+02
 -27.125  0.1419E-40  0.1200E+02
 -27.115  0.3339E-41  0.1200E+02
 -27.105  0.7771E-42  0.1200E+02
 -27.095  0.1789E-42  0.1200E+02
 -27.085  0.4076E-43  0.1200E+02
 -27.075  0.9184E-44  0.1200E+02
 -27.065  0.2047E-44  0.1200E+02
 -27.055  0.4515E-45  0.1200E+02
 -27.045  0.9848E-46  0.1200E+02
 -27.035  0.2125E-46  0.1200E+02
 -27.025  0.4537E-47  0.1200E+02
 -27.015  0.9582E-48  0.1200E+02
 -27.005  0.2002E-48  0.1200E+02
 -26.995  0.4137E-49  0.1200E+02
 -26.985  0.8459E-50  0.1200E+02
 -26.975  0.1711E-50  0.1200E+02
 -26.965  0.3423E-51  0.1200E+02
 -26.955  0.6776E-52  0.1200E+02
 -26.945  0.1327E-52  0.1200E+02
 -26.935  0.2570E-53  0.1200E+02
 -26.925  0.4924E-54  0.1200E+02
 -26.915  0.9335E-55  0.1200E+02
 -26.905  0.1750E-55  0.1200E+02
 -26.895  0.3249E-56  0.1200E+02
 -26.885  0.6070E-57  0.1200E+02
 -26.875  0.1698E-57  0.1200E+02
 -26.865  0.3601E-57  0.1200E+02
 -26.855  0.1867E-56  0.1200E+02
 -26.845  0.1008E-55  0.1200E+02
 -26.835  0.5394E-55  0.1200E+02
 -26.825  0.2856E-54  0.1200E+02
 -26.815  0.1496E-53  0.1200E+02
 -26.805  0.7749E-53  0.1200E+02
 -26.795  0.3971E-52  0.1200E+02
 -26.785  0.2014E-51  0.1200E+02
 -26.775  0.1010E-50  0.1200E+02
 -26.765  0.5011E-50  0.1200E+02
 -26.755  0.2460E-49  0.1200E+02
 -26.745  0.1194E-48  0.1200E+02
 -26.735  0.5737E-48  0.1200E+02
 -26.725  0.2726E-47  0.1200E+02
 -26.715  0.1282E-46  0.1200E+02
 -26.705  0.5960E-46  0.1200E+02
 -26.695  0.2742E-45  0.1200E+02
 -26.685  0.1248E-44  0.1200E+02
 -26.675  0.5617E-44  0.1200E+02
 -26.665  0.2502E-43  0.1200E+02
 -26.655  0.1102E-42  0.1200E+02
 -26.645  0.4804E-42  0.1200E+02
 -26.635  0.2071E-41  0.1200E+02
 -26.625  0.8834E-41  0.1200E+02
 -26.615  0.3728E-40  0.1200E+02
 -26.605  0.1556E-39  0.1200E+02
 -26.595  0.6425E-39  0.1200E+02
 -26.585  0.2625E-38  0.1200E+02
 -26.575  0.1061E-37  0.1200E+02
 -26.565  0.4240E-37  0.1200E+02
 -26.555  0.1677E-36  0.1200E+02
 -26.545  0.6559E-36  0.1200E+02
 -26.535  0.2538E-35  0.1200E+02
 -26.525  0.9718E-35  0.1200E+02
 -26.515  0.3681E-34  0.1200E+02
 -26.505  0.1379E-33  0.1200E+02
 -26.495  0.5111E-33  0.1200E+02
 -26.485  0.1874E-32  0.1200E+02
 -26.475  0.6797E-32  0.1200E+02
 -26.465  0.2439E-31  0.1200E+02
 -26.455  0.8658E-31  0.1200E+02
 -26.445  0.3040E-30  0.1200E+02
 -26.435  0.1056E-29  0.1200E+02
 -26.425  0.3629E-29  0.1200E+02
 -26.415  0.1234E-28  0.1200E+02
 -26.405  0.4149E-28  0.1200E+02
 -26.395  0.1380E-27  0.1200E+02
 -26.385  0.4542E-27  0.1200E+02
 -26.375  0.1479E-26  0.1200E+02
 -26.365  0.4763E-26  0.1200E+02
 -26.355  0.1518E-25  0.1200E+02
 -26.345  0.4783E-25  0.1200E+02
 -26.335  0.1491E-24  0.1200E+02
 -26.325  0.4600E-24  0.1200E+02
 -26.315  0.1404E-23  0.1200E+02
 -26.305  0.4237E-23  0.1200E+02
 -26.295  0.1265E-22  0.1200E+02
 -26.285  0.3737E-22  0.1200E+02
 -26.275  0.1092E-21  0.1200E+02
 -26.265  0.3157E-21  0.1200E+02
 -26.255  0.9030E-21  0.1200E+02
 -26.245  0.2555E-20  0.1200E+02
 -26.235  0.7149E-20  0.1200E+02
 -26.225  0.1979E-19  0.1200E+02
 -26.215  0.5421E-19  0.1200E+02
 -26.205  0.1469E-18  0.1200E+02
 -26.195  0.3937E-18  0.1200E+02
 -26.185  0.1044E-17  0.1200E+02
 -26.175  0.2738E-17  0.1200E+02
 -26.165  0.7105E-17  0.1200E+02
 -26.155  0.1824E-16  0.1200E+02
 -26.145  0.4631E-16  0.1200E+02
 -26.135  0.1163E-15  0.1200E+02
 -26.125  0.2891E-15  0.1200E+02
 -26.115  0.7108E-15  0.1200E+02
 -26.105  0.1729E-14  0.1200E+02
 -26.095  0.4159E-14  0.1200E+02
 -26.085  0.9898E-14  0.1200E+02
 -26.075  0.2330E-13  0.1200E+02
 -26.065  0.5428E-13  0.1200E+02
 -26.055  0.1251E-12  0.1200E+02
 -26.045  0.2850E-12  0.1200E+02
 -26.035  0.6427E-12  0.1200E+02
 -26.025  0.1434E-11  0.1200E+02
 -26.015  0.3164E-11  0.1200E+02
 -26.005  0.6906E-11  0.1200E+02
 -25.995  0.1491E-10  0.1200E+02
 -25.985  0.3186E-10  0.1200E+02
 -25.975  0.6733E-10  0.1200E+02
 -25.965  0.1408E-09  0.1200E+02
 -25.955  0.2911E-09  0.1200E+02
 -25.945  0.5956E-09  0.1200E+02
 -25.935  0.1205E-08  0.1200E+02
 -25.925  0.2414E-08  0.1200E+02
 -25.915  0.4781E-08  0.1200E+02
 -25.905  0.9367E-08  0.1200E+02
 -25.895  0.1816E-07  0.1200E+02
 -25.885  0.3482E-07  0.1200E+02
 -25.875  0.6605E-07  0.1200E+02
 -25.865  0.1239E-06  0.1200E+02
 -25.855  0.2301E-06  0.1200E+02
 -25.845  0.4226E-06  0.1200E+02
 -25.835  0.7678E-06  0.1200E+02
 -25.825  0.1380E-05  0.1200E+02
 -25.815  0.2454E-05  0.1200E+02
 -25.805  0.4316E-05  0.1200E+02
 -25.795  0.7510E-05  0.1200E+02
 -25.785  0.1293E-04  0.1200E+02
 -25.775  0.2202E-04  0.1200E+02
 -25.765  0.3709E-04  0.1200E+02
 -25.755  0.6181E-04  0.1200E+02
 -25.745  0.1019E-03  0.1200E+02
 -25.735  0.1662E-03  0.1200E+02
 -25.725  0.2683E-03  0.1200E+02
 -25.715  0.4283E-03  0.1200E+02
 -25.705  0.6763E-03  0.1200E+02
 -25.695  0.1057E-02  0.1200E+02
 -25.685  0.1633E-02  0.1200E+02
 -25.675  0.2498E-02  0.1200E+02
 -25.665  0.3779E-02  0.1200E+02
 -25.655  0.5657E-02  0.1200E+02
 -25.645  0.8377E-02  0.1200E+02
 -25.635  0.1227E-01  0.1200E+02
 -25.625  0.1779E-01  0.1200E+02
 -25.615  0.2552E-01  0.1200E+02
 -25.605  0.3621E-01  0.1200E+02
 -25.595  0.5084E-01  0.1200E+02
 -25.585  0.7062E-01  0.1200E+02
 -25.575  0.9708E-01  0.1200E+02
 -25.565  0.1320E+00  0.1200E+02
 -25.555  0.1777E+00  0.1201E+02
 -25.545  0.2367E+00  0.1201E+02
 -25.535  0.3119E+00  0.1201E+02
 -25.525  0.4069E+00  0.1202E+02
 -25.515  0.5252E+00  0.1202E+02
 -25.505  0.6711E+00  0.1203E+02
 -25.495  0.8486E+00  0.1204E+02
 -25.485  0.1062E+01  0.1205E+02
 -25.475  0.1316E+01  0.1206E+02
 -25.465  0.1614E+01  0.1208E+02
 -25.455  0.1961E+01  0.1210E+02
 -25.445  0.2358E+01  0.1212E+02
 -25.435  0.2807E+01  0.1215E+02
 -25.425  0.3311E+01  0.1218E+02
 -25.415  0.3867E+01  0.1222E+02
 -25.405  0.4473E+01  0.1226E+02
 -25.395  0.5127E+01  0.1232E+02
 -25.385  0.5822E+01  0.1237E+02
 -25.375  0.6551E+01  0.1244E+02
 -25.365  0.7306E+01  0.1251E+02
 -25.355  0.8076E+01  0.1259E+02
 -25.345  0.8850E+01  0.1268E+02
 -25.335  0.9615E+01  0.1278E+02
 -25.325  0.1036E+02  0.1288E+02
 -25.315  0.1107E+02  0.1299E+02
 -25.305  0.1174E+02  0.1311E+02
 -25.295  0.1234E+02  0.1323E+02
 -25.285  0.1288E+02  0.1336E+02
 -25.275  0.1333E+02  0.1349E+02
 -25.265  0.1370E+02  0.1363E+02
 -25.255  0.1397E+02  0.1377E+02
 -25.245  0.1414E+02  0.1391E+02
 -25.235  0.1421E+02  0.1405E+02
 -25.225  0.1417E+02  0.1420E+02
 -25.215  0.1402E+02  0.1434E+02
 -25.205  0.1378E+02  0.1447E+02
 -25.195  0.1344E+02  0.1461E+02
 -25.185  0.1301E+02  0.1474E+02
 -25.175  0.1250E+02  0.1486E+02
 -25.165  0.1192E+02  0.1498E+02
 -25.155  0.1128E+02  0.1510E+02
 -25.145  0.1060E+02  0.1520E+02
 -25.135  0.9894E+01  0.1530E+02
 -25.125  0.9169E+01  0.1539E+02
 -25.115  0.8444E+01  0.1548E+02
 -25.105  0.7735E+01  0.1555E+02
 -25.095  0.7054E+01  0.1563E+02
 -25.085  0.6417E+01  0.1569E+02
 -25.075  0.5834E+01  0.1575E+02
 -25.065  0.5319E+01  0.1580E+02
 -25.055  0.4878E+01  0.1585E+02
 -25.045  0.4521E+01  0.1589E+02
 -25.035  0.4252E+01  0.1594E+02
 -25.025  0.4075E+01  0.1598E+02
 -25.015  0.3990E+01  0.1602E+02
 -25.005  0.3996E+01  0.1606E+02
 -24.995  0.4090E+01  0.1610E+02
 -24.985  0.4265E+01  0.1614E+02
 -24.975  0.4513E+01  0.1619E+02
 -24.965  0.4824E+01  0.1623E+02
 -24.955  0.5185E+01  0.1629E+02
 -24.945  0.5583E+01  0.1634E+02
 -24.935  0.6002E+01  0.1640E+02
 -24.925  0.6427E+01  0.1647E+02
 -24.915  0.6842E+01  0.1654E+02
 -24.905  0.7231E+01  0.1661E+02
 -24.895  0.7578E+01  0.1668E+02
 -24.885  0.7871E+01  0.1676E+02
 -24.875  0.8097E+01  0.1684E+02
 -24.865  0.8247E+01  0.1693E+02
 -24.855  0.8314E+01  0.1701E+02
 -24.845  0.8296E+01  0.1709E+02
 -24.835  0.8191E+01  0.1717E+02
 -24.825  0.8003E+01  0.1725E+02
 -24.815  0.7735E+01  0.1733E+02
 -24.805  0.7398E+01  0.1740E+02
 -24.795  0.6999E+01  0.1747E+02
 -24.785  0.6551E+01  0.1754E+02
 -24.775  0.6066E+01  0.1760E+02
 -24.765  0.5557E+01  0.1766E+02
 -24.755  0.5036E+01  0.1771E+02
 -24.745  0.4514E+01  0.1775E+02
 -24.735  0.4004E+01  0.1779E+02
 -24.725  0.3513E+01  0.1783E+02
 -24.715  0.3049E+01  0.1786E+02
 -24.705  0.2618E+01  0.1788E+02
 -24.695  0.2224E+01  0.1791E+02
 -24.685  0.1870E+01  0.1792E+02
 -24.675  0.1555E+01  0.1794E+02
 -24.665  0.1281E+01  0.1795E+02
 -24.655  0.1045E+01  0.1796E+02
 -24.645  0.8447E+00  0.1797E+02
 -24.635  0.6785E+00  0.1798E+02
 -24.625  0.5431E+00  0.1798E+02
 -24.615  0.4359E+00  0.1799E+02
 -24.605  0.3541E+00  0.1799E+02
 -24.595  0.2957E+00  0.1800E+02
 -24.585  0.2591E+00  0.1800E+02
 -24.575  0.2431E+00  0.1800E+02
 -24.565  0.2478E+00  0.1800E+02
 -24.555  0.2735E+00  0.1801E+02
 -24.545  0.3219E+00  0.1801E+02
 -24.535  0.3951E+00  0.1801E+02
 -24.525  0.4962E+00  0.1802E+02
 -24.515  0.6293E+00  0.1802E+02
 -24.505  0.7989E+00  0.1803E+02
 -24.495  0.1010E+01  0.1804E+02
 -24.485  0.1268E+01  0.1805E+02
 -24.475  0.1579E+01  0.1807E+02
 -24.465  0.1949E+01  0.1809E+02
 -24.455  0.2381E+01  0.1811E+02
 -24.445  0.2881E+01  0.1814E+02
 -24.435  0.3451E+01  0.1818E+02
 -24.425  0.4093E+01  0.1822E+02
 -24.415  0.4805E+01  0.1827E+02
 -24.405  0.5584E+01  0.1832E+02
 -24.395  0.6424E+01  0.1839E+02
 -24.385  0.7317E+01  0.1846E+02
 -24.375  0.8250E+01  0.1854E+02
 -24.365  0.9210E+01  0.1863E+02
 -24.355  0.1018E+02  0.1874E+02
 -24.345  0.1114E+02  0.1885E+02
 -24.335  0.1206E+02  0.1897E+02
 -24.325  0.1294E+02  0.1910E+02
 -24.315  0.1374E+02  0.1923E+02
 -24.305  0.1444E+02  0.1938E+02
 -24.295  0.1503E+02  0.1953E+02
 -24.285  0.1549E+02  0.1968E+02
 -24.275  0.1581E+02  0.1984E+02
 -24.265  0.1598E+02  0.2000E+02
 -24.255  0.1599E+02  0.2016E+02
 -24.245  0.1586E+02  0.2032E+02
 -24.235  0.1557E+02  0.2048E+02
 -24.225  0.1515E+02  0.2063E+02
 -24.215  0.1461E+02  0.2077E+02
 -24.205  0.1398E+02  0.2091E+02
 -24.195  0.1326E+02  0.2105E+02
 -24.185  0.1250E+02  0.2117E+02
 -24.175  0.1171E+02  0.2129E+02
 -24.165  0.1092E+02  0.2140E+02
 -24.155  0.1016E+02  0.2150E+02
 -24.145  0.9460E+01  0.2159E+02
 -24.135  0.8836E+01  0.2168E+02
 -24.125  0.8310E+01  0.2177E+02
 -24.115  0.7900E+01  0.2184E+02
 -24.105  0.7620E+01  0.2192E+02
 -24.095  0.7478E+01  0.2200E+02
 -24.085  0.7481E+01  0.2207E+02
 -24.075  0.7628E+01  0.2215E+02
 -24.065  0.7915E+01  0.2223E+02
 -24.055  0.8335E+01  0.2231E+02
 -24.045  0.8873E+01  0.2240E+02
 -24.035  0.9513E+01  0.2249E+02
 -24.025  0.1024E+02  0.2259E+02
 -24.015  0.1102E+02  0.2271E+02
 -24.005  0.1183E+02  0.2282E+02
 -23.995  0.1266E+02  0.2295E+02
 -23.985  0.1346E+02  0.2308E+02
 -23.975  0.1422E+02  0.2323E+02
 -23.965  0.1491E+02  0.2338E+02
 -23.955  0.1551E+02  0.2353E+02
 -23.945  0.1600E+02  0.2369E+02
 -23.935  0.1638E+02  0.2385E+02
 -23.925  0.1662E+02  0.2402E+02
 -23.915  0.1673E+02  0.2419E+02
 -23.905  0.1671E+02  0.2436E+02
 -23.895  0.1657E+02  0.2452E+02
 -23.885  0.1632E+02  0.2468E+02
 -23.875  0.1599E+02  0.2484E+02
 -23.865  0.1559E+02  0.2500E+02
 -23.855  0.1515E+02  0.2515E+02
 -23.845  0.1469E+02  0.2530E+02
 -23.835  0.1423E+02  0.2544E+02
 -23.825  0.1381E+02  0.2558E+02
 -23.815  0.1343E+02  0.2571E+02
 -23.805  0.1313E+02  0.2584E+02
 -23.795  0.1291E+02  0.2597E+02
 -23.785  0.1277E+02  0.2610E+02
 -23.775  0.1273E+02  0.2623E+02
 -23.765  0.1278E+02  0.2636E+02
 -23.755  0.1291E+02  0.2649E+02
 -23.745  0.1312E+02  0.2662E+02
 -23.735  0.1338E+02  0.2675E+02
 -23.725  0.1368E+02  0.2689E+02
 -23.715  0.1401E+02  0.2703E+02
 -23.705  0.1433E+02  0.2717E+02
 -23.695  0.1464E+02  0.2732E+02
 -23.685  0.1491E+02  0.2747E+02
 -23.675  0.1511E+02  0.2762E+02
 -23.665  0.1524E+02  0.2777E+02
 -23.655  0.1529E+02  0.2792E+02
 -23.645  0.1524E+02  0.2807E+02
 -23.635  0.1508E+02  0.2823E+02
 -23.625  0.1482E+02  0.2837E+02
 -23.615  0.1446E+02  0.2852E+02
 -23.605  0.1399E+02  0.2866E+02
 -23.595  0.1344E+02  0.2879E+02
 -23.585  0.1279E+02  0.2892E+02
 -23.575  0.1208E+02  0.2904E+02
 -23.565  0.1131E+02  0.2915E+02
 -23.555  0.1050E+02  0.2926E+02
 -23.545  0.9668E+01  0.2936E+02
 -23.535  0.8821E+01  0.2944E+02
 -23.525  0.7977E+01  0.2952E+02
 -23.515  0.7151E+01  0.2960E+02
 -23.505  0.6354E+01  0.2966E+02
 -23.495  0.5597E+01  0.2972E+02
 -23.485  0.4890E+01  0.2976E+02
 -23.475  0.4238E+01  0.2981E+02
 -23.465  0.3648E+01  0.2984E+02
 -23.455  0.3123E+01  0.2987E+02
 -23.445  0.2666E+01  0.2990E+02
 -23.435  0.2276E+01  0.2992E+02
 -23.425  0.1954E+01  0.2994E+02
 -23.415  0.1700E+01  0.2996E+02
 -23.405  0.1512E+01  0.2998E+02
 -23.395  0.1389E+01  0.2999E+02
 -23.385  0.1330E+01  0.3000E+02
 -23.375  0.1333E+01  0.3002E+02
 -23.365  0.1397E+01  0.3003E+02
 -23.355  0.1520E+01  0.3005E+02
 -23.345  0.1702E+01  0.3006E+02
 -23.335  0.1939E+01  0.3008E+02
 -23.325  0.2231E+01  0.3010E+02
 -23.315  0.2574E+01  0.3013E+02
 -23.305  0.2964E+01  0.3016E+02
 -23.295  0.3396E+01  0.3019E+02
 -23.285  0.3862E+01  0.3023E+02
 -23.275  0.4356E+01  0.3028E+02
 -23.265  0.4866E+01  0.3032E+02
 -23.255  0.5382E+01  0.3038E+02
 -23.245  0.5893E+01  0.3044E+02
 -23.235  0.6384E+01  0.3050E+02
 -23.225  0.6844E+01  0.3057E+02
 -23.215  0.7259E+01  0.3064E+02
 -23.205  0.7618E+01  0.3072E+02
 -23.195  0.7908E+01  0.3080E+02
 -23.185  0.8122E+01  0.3088E+02
 -23.175  0.8252E+01  0.3096E+02
 -23.165  0.8294E+01  0.3104E+02
 -23.155  0.8247E+01  0.3113E+02
 -23.145  0.8112E+01  0.3121E+02
 -23.135  0.7893E+01  0.3129E+02
 -23.125  0.7598E+01  0.3136E+02
 -23.115  0.7236E+01  0.3143E+02
 -23.105  0.6817E+01  0.3150E+02
 -23.095  0.6353E+01  0.3157E+02
 -23.085  0.5859E+01  0.3162E+02
 -23.075  0.5345E+01  0.3168E+02
 -23.065  0.4825E+01  0.3173E+02
 -23.055  0.4311E+01  0.3177E+02
 -23.045  0.3813E+01  0.3181E+02
 -23.035  0.3339E+01  0.3184E+02
 -23.025  0.2899E+01  0.3187E+02
 -23.015  0.2497E+01  0.3190E+02
 -23.005  0.2137E+01  0.3192E+02
 -22.995  0.1824E+01  0.3193E+02
 -22.985  0.1558E+01  0.3195E+02
 -22.975  0.1342E+01  0.3196E+02
 -22.965  0.1175E+01  0.3198E+02
 -22.955  0.1058E+01  0.3199E+02
 -22.945  0.9906E+00  0.3200E+02
 -22.935  0.9734E+00  0.3201E+02
 -22.925  0.1007E+01  0.3202E+02
 -22.915  0.1091E+01  0.3203E+02
 -22.905  0.1228E+01  0.3204E+02
 -22.895  0.1419E+01  0.3205E+02
 -22.885  0.1665E+01  0.3207E+02
 -22.875  0.1967E+01  0.3209E+02
 -22.865  0.2327E+01  0.3211E+02
 -22.855  0.2746E+01  0.3214E+02
 -22.845  0.3223E+01  0.3217E+02
 -22.835  0.3760E+01  0.3221E+02
 -22.825  0.4354E+01  0.3225E+02
 -22.815  0.5003E+01  0.3230E+02
 -22.805  0.5705E+01  0.3236E+02
 -22.795  0.6455E+01  0.3243E+02
 -22.785  0.7249E+01  0.3250E+02
 -22.775  0.8082E+01  0.3258E+02
 -22.765  0.8949E+01  0.3267E+02
 -22.755  0.9844E+01  0.3277E+02
 -22.745  0.1076E+02  0.3287E+02
 -22.735  0.1170E+02  0.3299E+02
 -22.725  0.1264E+02  0.3312E+02
 -22.715  0.1360E+02  0.3325E+02
 -22.705  0.1455E+02  0.3340E+02
 -22.695  0.1551E+02  0.3355E+02
 -22.685  0.1646E+02  0.3372E+02
 -22.675  0.1740E+02  0.3389E+02
 -22.665  0.1833E+02  0.3408E+02
 -22.655  0.1924E+02  0.3427E+02
 -22.645  0.2012E+02  0.3447E+02
 -22.635  0.2098E+02  0.3468E+02
 -22.625  0.2180E+02  0.3490E+02
 -22.615  0.2257E+02  0.3512E+02
 -22.605  0.2330E+02  0.3536E+02
 -22.595  0.2397E+02  0.3560E+02
 -22.585  0.2458E+02  0.3584E+02
 -22.575  0.2512E+02  0.3609E+02
 -22.565  0.2559E+02  0.3635E+02
 -22.555  0.2599E+02  0.3661E+02
 -22.545  0.2631E+02  0.3687E+02
 -22.535  0.2655E+02  0.3714E+02
 -22.525  0.2672E+02  0.3740E+02
 -22.515  0.2681E+02  0.3767E+02
 -22.505  0.2682E+02  0.3794E+02
 -22.495  0.2677E+02  0.3821E+02
 -22.485  0.2665E+02  0.3848E+02
 -22.475  0.2646E+02  0.3874E+02
 -22.465  0.2622E+02  0.3900E+02
 -22.455  0.2592E+02  0.3926E+02
 -22.445  0.2556E+02  0.3952E+02
 -22.435  0.2516E+02  0.3977E+02
 -22.425  0.2472E+02  0.4002E+02
 -22.415  0.2423E+02  0.4026E+02
 -22.405  0.2371E+02  0.4049E+02
 -22.395  0.2316E+02  0.4073E+02
 -22.385  0.2259E+02  0.4095E+02
 -22.375  0.2200E+02  0.4117E+02
 -22.365  0.2139E+02  0.4139E+02
 -22.355  0.2078E+02  0.4159E+02
 -22.345  0.2016E+02  0.4180E+02
 -22.335  0.1955E+02  0.4199E+02
 -22.325  0.1895E+02  0.4218E+02
 -22.315  0.1836E+02  0.4236E+02
 -22.305  0.1780E+02  0.4254E+02
 -22.295  0.1725E+02  0.4271E+02
 -22.285  0.1674E+02  0.4288E+02
 -22.275  0.1626E+02  0.4304E+02
 -22.265  0.1581E+02  0.4320E+02
 -22.255  0.1540E+02  0.4336E+02
 -22.245  0.1502E+02  0.4351E+02
 -22.235  0.1468E+02  0.4365E+02
 -22.225  0.1437E+02  0.4380E+02
 -22.215  0.1410E+02  0.4394E+02
 -22.205  0.1386E+02  0.4408E+02
 -22.195  0.1365E+02  0.4421E+02
 -22.185  0.1347E+02  0.4435E+02
 -22.175  0.1330E+02  0.4448E+02
 -22.165  0.1316E+02  0.4461E+02
 -22.155  0.1302E+02  0.4474E+02
 -22.145  0.1290E+02  0.4487E+02
 -22.135  0.1279E+02  0.4500E+02
 -22.125  0.1268E+02  0.4513E+02
 -22.115  0.1259E+02  0.4525E+02
 -22.105  0.1249E+02  0.4538E+02
 -22.095  0.1241E+02  0.4550E+02
 -22.085  0.1233E+02  0.4562E+02
 -22.075  0.1225E+02  0.4575E+02
 -22.065  0.1219E+02  0.4587E+02
 -22.055  0.1213E+02  0.4599E+02
 -22.045  0.1209E+02  0.4611E+02
 -22.035  0.1205E+02  0.4623E+02
 -22.025  0.1201E+02  0.4635E+02
 -22.015  0.1198E+02  0.4647E+02
 -22.005  0.1195E+02  0.4659E+02
 -21.995  0.1193E+02  0.4671E+02
 -21.985  0.1190E+02  0.4683E+02
 -21.975  0.1188E+02  0.4695E+02
 -21.965  0.1186E+02  0.4707E+02
 -21.955  0.1185E+02  0.4719E+02
 -21.945  0.1185E+02  0.4730E+02
 -21.935  0.1186E+02  0.4742E+02
 -21.925  0.1189E+02  0.4754E+02
 -21.915  0.1194E+02  0.4766E+02
 -21.905  0.1202E+02  0.4778E+02
 -21.895  0.1214E+02  0.4790E+02
 -21.885  0.1229E+02  0.4803E+02
 -21.875  0.1249E+02  0.4815E+02
 -21.865  0.1272E+02  0.4828E+02
 -21.855  0.1298E+02  0.4841E+02
 -21.845  0.1328E+02  0.4854E+02
 -21.835  0.1359E+02  0.4868E+02
 -21.825  0.1391E+02  0.4882E+02
 -21.815  0.1424E+02  0.4896E+02
 -21.805  0.1455E+02  0.4910E+02
 -21.795  0.1483E+02  0.4925E+02
 -21.785  0.1507E+02  0.4940E+02
 -21.775  0.1525E+02  0.4955E+02
 -21.765  0.1537E+02  0.4971E+02
 -21.755  0.1541E+02  0.4986E+02
 -21.745  0.1537E+02  0.5002E+02
 -21.735  0.1525E+02  0.5017E+02
 -21.725  0.1503E+02  0.5032E+02
 -21.715  0.1473E+02  0.5047E+02
 -21.705  0.1435E+02  0.5061E+02
 -21.695  0.1389E+02  0.5075E+02
 -21.685  0.1337E+02  0.5088E+02
 -21.675  0.1281E+02  0.5101E+02
 -21.665  0.1221E+02  0.5113E+02
 -21.655  0.1159E+02  0.5125E+02
 -21.645  0.1097E+02  0.5136E+02
 -21.635  0.1038E+02  0.5146E+02
 -21.625  0.9813E+01  0.5156E+02
 -21.615  0.9298E+01  0.5165E+02
 -21.605  0.8845E+01  0.5174E+02
 -21.595  0.8463E+01  0.5183E+02
 -21.585  0.8159E+01  0.5191E+02
 -21.575  0.7937E+01  0.5199E+02
 -21.565  0.7796E+01  0.5206E+02
 -21.555  0.7732E+01  0.5214E+02
 -21.545  0.7738E+01  0.5222E+02
 -21.535  0.7803E+01  0.5230E+02
 -21.525  0.7914E+01  0.5238E+02
 -21.515  0.8055E+01  0.5246E+02
 -21.505  0.8211E+01  0.5254E+02
 -21.495  0.8365E+01  0.5262E+02
 -21.485  0.8500E+01  0.5271E+02
 -21.475  0.8602E+01  0.5279E+02
 -21.465  0.8657E+01  0.5288E+02
 -21.455  0.8654E+01  0.5297E+02
 -21.445  0.8586E+01  0.5305E+02
 -21.435  0.8448E+01  0.5314E+02
 -21.425  0.8239E+01  0.5322E+02
 -21.415  0.7960E+01  0.5330E+02
 -21.405  0.7617E+01  0.5338E+02
 -21.395  0.7217E+01  0.5345E+02
 -21.385  0.6768E+01  0.5352E+02
 -21.375  0.6283E+01  0.5358E+02
 -21.365  0.5772E+01  0.5364E+02
 -21.355  0.5247E+01  0.5369E+02
 -21.345  0.4720E+01  0.5374E+02
 -21.335  0.4200E+01  0.5378E+02
 -21.325  0.3699E+01  0.5381E+02
 -21.315  0.3222E+01  0.5385E+02
 -21.305  0.2778E+01  0.5387E+02
 -21.295  0.2369E+01  0.5390E+02
 -21.285  0.2000E+01  0.5392E+02
 -21.275  0.1670E+01  0.5393E+02
 -21.265  0.1382E+01  0.5395E+02
 -21.255  0.1132E+01  0.5396E+02
 -21.245  0.9205E+00  0.5397E+02
 -21.235  0.7439E+00  0.5398E+02
 -21.225  0.6000E+00  0.5398E+02
 -21.215  0.4860E+00  0.5399E+02
 -21.205  0.3994E+00  0.5399E+02
 -21.195  0.3381E+00  0.5399E+02
 -21.185  0.3004E+00  0.5400E+02
 -21.175  0.2852E+00  0.5400E+02
 -21.165  0.2920E+00  0.5400E+02
 -21.155  0.3211E+00  0.5401E+02
 -21.145  0.3735E+00  0.5401E+02
 -21.135  0.4506E+00  0.5402E+02
 -21.125  0.5545E+00  0.5402E+02
 -21.115  0.6878E+00  0.5403E+02
 -21.105  0.8533E+00  0.5404E+02
 -21.095  0.1054E+01  0.5405E+02
 -21.085  0.1293E+01  0.5406E+02
 -21.075  0.1572E+01  0.5408E+02
 -21.065  0.1893E+01  0.5409E+02
 -21.055  0.2259E+01  0.5412E+02
 -21.045  0.2668E+01  0.5414E+02
 -21.035  0.3119E+01  0.5417E+02
 -21.025  0.3611E+01  0.5421E+02
 -21.015  0.4139E+01  0.5425E+02
 -21.005  0.4699E+01  0.5430E+02
 -20.995  0.5282E+01  0.5435E+02
 -20.985  0.5882E+01  0.5441E+02
 -20.975  0.6491E+01  0.5448E+02
 -20.965  0.7098E+01  0.5455E+02
 -20.955  0.7694E+01  0.5462E+02
 -20.945  0.8271E+01  0.5471E+02
 -20.935  0.8820E+01  0.5479E+02
 -20.925  0.9334E+01  0.5489E+02
 -20.915  0.9806E+01  0.5499E+02
 -20.905  0.1023E+02  0.5509E+02
 -20.895  0.1061E+02  0.5519E+02
 -20.885  0.1094E+02  0.5530E+02
 -20.875  0.1121E+02  0.5542E+02
 -20.865  0.1144E+02  0.5553E+02
 -20.855  0.1162E+02  0.5565E+02
 -20.845  0.1175E+02  0.5576E+02
 -20.835  0.1183E+02  0.5588E+02
 -20.825  0.1188E+02  0.5600E+02
 -20.815  0.1188E+02  0.5612E+02
 -20.805  0.1183E+02  0.5624E+02
 -20.795  0.1174E+02  0.5636E+02
 -20.785  0.1161E+02  0.5647E+02
 -20.775  0.1143E+02  0.5659E+02
 -20.765  0.1121E+02  0.5670E+02
 -20.755  0.1093E+02  0.5681E+02
 -20.745  0.1060E+02  0.5691E+02
 -20.735  0.1023E+02  0.5702E+02
 -20.725  0.9798E+01  0.5711E+02
 -20.715  0.9325E+01  0.5721E+02
 -20.705  0.8811E+01  0.5730E+02
 -20.695  0.8261E+01  0.5738E+02
 -20.685  0.7684E+01  0.5745E+02
 -20.675  0.7087E+01  0.5753E+02
 -20.665  0.6480E+01  0.5759E+02
 -20.655  0.5872E+01  0.5765E+02
 -20.645  0.5272E+01  0.5770E+02
 -20.635  0.4688E+01  0.5775E+02
 -20.625  0.4130E+01  0.5779E+02
 -20.615  0.3602E+01  0.5783E+02
 -20.605  0.3110E+01  0.5786E+02
 -20.595  0.2659E+01  0.5788E+02
 -20.585  0.2250E+01  0.5791E+02
 -20.575  0.1884E+01  0.5792E+02
 -20.565  0.1562E+01  0.5794E+02
 -20.555  0.1281E+01  0.5795E+02
 -20.545  0.1040E+01  0.5796E+02
 -20.535  0.8353E+00  0.5797E+02
 -20.525  0.6638E+00  0.5798E+02
 -20.515  0.5220E+00  0.5798E+02
 -20.505  0.4062E+00  0.5799E+02
 -20.495  0.3127E+00  0.5799E+02
 -20.485  0.2381E+00  0.5799E+02
 -20.475  0.1794E+00  0.5800E+02
 -20.465  0.1337E+00  0.5800E+02
 -20.455  0.9864E-01  0.5800E+02
 -20.445  0.7197E-01  0.5800E+02
 -20.435  0.5195E-01  0.5800E+02
 -20.425  0.3709E-01  0.5800E+02
 -20.415  0.2620E-01  0.5800E+02
 -20.405  0.1831E-01  0.5800E+02
 -20.395  0.1266E-01  0.5800E+02
 -20.385  0.8660E-02  0.5800E+02
 -20.375  0.5859E-02  0.5800E+02
 -20.365  0.3922E-02  0.5800E+02
 -20.355  0.2597E-02  0.5800E+02
 -20.345  0.1701E-02  0.5800E+02
 -20.335  0.1102E-02  0.5800E+02
 -20.325  0.7067E-03  0.5800E+02
 -20.315  0.4482E-03  0.5800E+02
 -20.305  0.2812E-03  0.5800E+02
 -20.295  0.1745E-03  0.5800E+02
 -20.285  0.1071E-03  0.5800E+02
 -20.275  0.6508E-04  0.5800E+02
 -20.265  0.3910E-04  0.5800E+02
 -20.255  0.2324E-04  0.5800E+02
 -20.245  0.1367E-04  0.5800E+02
 -20.235  0.7949E-05  0.5800E+02
 -20.225  0.4574E-05  0.5800E+02
 -20.215  0.2604E-05  0.5800E+02
 -20.205  0.1467E-05  0.5800E+02
 -20.195  0.8173E-06  0.5800E+02
 -20.185  0.4510E-06  0.5800E+02
 -20.175  0.2471E-06  0.5800E+02
 -20.165  0.1358E-06  0.5800E+02
 -20.155  0.7731E-07  0.5800E+02
 -20.145  0.5030E-07  0.5800E+02
 -20.135  0.4458E-07  0.5800E+02
 -20.125  0.5795E-07  0.5800E+02
 -20.115  0.9551E-07  0.5800E+02
 -20.105  0.1713E-06  0.5800E+02
 -20.095  0.3128E-06  0.5800E+02
 -20.085  0.5695E-06  0.5800E+02
 -20.075  0.1028E-05  0.5800E+02
 -20.065  0.1838E-05  0.5800E+02
 -20.055  0.3249E-05  0.5800E+02
 -20.045  0.5683E-05  0.5800E+02
 -20.035  0.9835E-05  0.5800E+02
 -20.025  0.1684E-04  0.5800E+02
 -20.015  0.2851E-04  0.5800E+02
 -20.005  0.4777E-04  0.5800E+02
 -19.995  0.7916E-04  0.5800E+02
 -19.985  0.1298E-03  0.5800E+02
 -19.975  0.2105E-03  0.5800E+02
 -19.965  0.3377E-03  0.5800E+02
 -19.955  0.5360E-03  0.5800E+02
 -19.945  0.8416E-03  0.5800E+02
 -19.935  0.1307E-02  0.5800E+02
 -19.925  0.2009E-02  0.5800E+02
 -19.915  0.3053E-02  0.5800E+02
 -19.905  0.4591E-02  0.5800E+02
 -19.895  0.6830E-02  0.5800E+02
 -19.885  0.1005E-01  0.5800E+02
 -19.875  0.1463E-01  0.5800E+02
 -19.865  0.2107E-01  0.5800E+02
 -19.855  0.3002E-01  0.5800E+02
 -19.845  0.4231E-01  0.5800E+02
 -19.835  0.5899E-01  0.5800E+02
 -19.825  0.8135E-01  0.5800E+02
 -19.815  0.1110E+00  0.5800E+02
 -19.805  0.1498E+00  0.5801E+02
 -19.795  0.2000E+00  0.5801E+02
 -19.785  0.2642E+00  0.5801E+02
 -19.775  0.3453E+00  0.5801E+02
 -19.765  0.4463E+00  0.5802E+02
 -19.755  0.5707E+00  0.5802E+02
 -19.745  0.7219E+00  0.5803E+02
 -19.735  0.9035E+00  0.5804E+02
 -19.725  0.1118E+01  0.5805E+02
 -19.715  0.1370E+01  0.5806E+02
 -19.705  0.1659E+01  0.5808E+02
 -19.695  0.1989E+01  0.5810E+02
 -19.685  0.2358E+01  0.5812E+02
 -19.675  0.2766E+01  0.5815E+02
 -19.665  0.3209E+01  0.5818E+02
 -19.655  0.3683E+01  0.5822E+02
 -19.645  0.4182E+01  0.5826E+02
 -19.635  0.4697E+01  0.5831E+02
 -19.625  0.5220E+01  0.5836E+02
 -19.615  0.5738E+01  0.5842E+02
 -19.605  0.6239E+01  0.5848E+02
 -19.595  0.6712E+01  0.5855E+02
 -19.585  0.7143E+01  0.5862E+02
 -19.575  0.7520E+01  0.5870E+02
 -19.565  0.7831E+01  0.5877E+02
 -19.555  0.8068E+01  0.5885E+02
 -19.545  0.8223E+01  0.5894E+02
 -19.535  0.8290E+01  0.5902E+02
 -19.525  0.8269E+01  0.5910E+02
 -19.515  0.8159E+01  0.5918E+02
 -19.505  0.7963E+01  0.5926E+02
 -19.495  0.7689E+01  0.5934E+02
 -19.485  0.7345E+01  0.5941E+02
 -19.475  0.6941E+01  0.5948E+02
 -19.465  0.6488E+01  0.5955E+02
 -19.455  0.6000E+01  0.5961E+02
 -19.445  0.5488E+01  0.5966E+02
 -19.435  0.4967E+01  0.5971E+02
 -19.425  0.4447E+01  0.5976E+02
 -19.415  0.3938E+01  0.5980E+02
 -19.405  0.3450E+01  0.5983E+02
 -19.395  0.2990E+01  0.5986E+02
 -19.385  0.2564E+01  0.5989E+02
 -19.375  0.2175E+01  0.5991E+02
 -19.365  0.1825E+01  0.5993E+02
 -19.355  0.1514E+01  0.5994E+02
 -19.345  0.1244E+01  0.5995E+02
 -19.335  0.1010E+01  0.5996E+02
 -19.325  0.8117E+00  0.5997E+02
 -19.315  0.6453E+00  0.5998E+02
 -19.305  0.5074E+00  0.5998E+02
 -19.295  0.3948E+00  0.5999E+02
 -19.285  0.3038E+00  0.5999E+02
 -19.275  0.2313E+00  0.5999E+02
 -19.265  0.1742E+00  0.6000E+02
 -19.255  0.1298E+00  0.6000E+02
 -19.245  0.9565E-01  0.6000E+02
 -19.235  0.6974E-01  0.6000E+02
 -19.225  0.5030E-01  0.6000E+02
 -19.215  0.3589E-01  0.6000E+02
 -19.205  0.2533E-01  0.6000E+02
 -19.195  0.1769E-01  0.6000E+02
 -19.185  0.1222E-01  0.6000E+02
 -19.175  0.8350E-02  0.6000E+02
 -19.165  0.5645E-02  0.6000E+02
 -19.155  0.3775E-02  0.6000E+02
 -19.145  0.2497E-02  0.6000E+02
 -19.135  0.1634E-02  0.6000E+02
 -19.125  0.1058E-02  0.6000E+02
 -19.115  0.6776E-03  0.6000E+02
 -19.105  0.4293E-03  0.6000E+02
 -19.095  0.2691E-03  0.6000E+02
 -19.085  0.1668E-03  0.6000E+02
 -19.075  0.1023E-03  0.6000E+02
 -19.065  0.6209E-04  0.6000E+02
 -19.055  0.3727E-04  0.6000E+02
 -19.045  0.2213E-04  0.6000E+02
 -19.035  0.1300E-04  0.6000E+02
 -19.025  0.7555E-05  0.6000E+02
 -19.015  0.4343E-05  0.6000E+02
 -19.005  0.2470E-05  0.6000E+02
 -18.995  0.1389E-05  0.6000E+02
 -18.985  0.7733E-06  0.6000E+02
 -18.975  0.4257E-06  0.6000E+02
 -18.965  0.2319E-06  0.6000E+02
 -18.955  0.1249E-06  0.6000E+02
 -18.945  0.6659E-07  0.6000E+02
 -18.935  0.3511E-07  0.6000E+02
 -18.925  0.1831E-07  0.6000E+02
 -18.915  0.9449E-08  0.6000E+02
 -18.905  0.4823E-08  0.6000E+02
 -18.895  0.2436E-08  0.6000E+02
 -18.885  0.1217E-08  0.6000E+02
 -18.875  0.6012E-09  0.6000E+02
 -18.865  0.2939E-09  0.6000E+02
 -18.855  0.1421E-09  0.6000E+02
 -18.845  0.6800E-10  0.6000E+02
 -18.835  0.3218E-10  0.6000E+02
 -18.825  0.1507E-10  0.6000E+02
 -18.815  0.6978E-11  0.6000E+02
 -18.805  0.3197E-11  0.6000E+02
 -18.795  0.1449E-11  0.6000E+02
 -18.785  0.6498E-12  0.6000E+02
 -18.775  0.2882E-12  0.6000E+02
 -18.765  0.1265E-12  0.6000E+02
 -18.755  0.5490E-13  0.6000E+02
 -18.745  0.2357E-13  0.6000E+02
 -18.735  0.1001E-13  0.6000E+02
 -18.725  0.4208E-14  0.6000E+02
 -18.715  0.1750E-14  0.6000E+02
 -18.705  0.7195E-15  0.6000E+02
 -18.695  0.2927E-15  0.6000E+02
 -18.685  0.1178E-15  0.6000E+02
 -18.675  0.4690E-16  0.6000E+02
 -18.665  0.1847E-16  0.6000E+02
 -18.655  0.7198E-17  0.6000E+02
 -18.645  0.2774E-17  0.6000E+02
 -18.635  0.1058E-17  0.6000E+02
 -18.625  0.3990E-18  0.6000E+02
 -18.615  0.1489E-18  0.6000E+02
 -18.605  0.5496E-19  0.6000E+02
 -18.595  0.2007E-19  0.6000E+02
 -18.585  0.7250E-20  0.6000E+02
 -18.575  0.2591E-20  0.6000E+02
 -18.565  0.9159E-21  0.6000E+02
 -18.555  0.3203E-21  0.6000E+02
 -18.545  0.1108E-21  0.6000E+02
 -18.535  0.3793E-22  0.6000E+02
 -18.525  0.1284E-22  0.6000E+02
 -18.515  0.4301E-23  0.6000E+02
 -18.505  0.1425E-23  0.6000E+02
 -18.495  0.4671E-24  0.6000E+02
 -18.485  0.1515E-24  0.6000E+02
 -18.475  0.4858E-25  0.6000E+02
 -18.465  0.1542E-25  0.6000E+02
 -18.455  0.4839E-26  0.6000E+02
 -18.445  0.1503E-26  0.6000E+02
 -18.435  0.4617E-27  0.6000E+02
 -18.425  0.1403E-27  0.6000E+02
 -18.415  0.4218E-28  0.6000E+02
 -18.405  0.1254E-28  0.6000E+02
 -18.395  0.3690E-29  0.6000E+02
 -18.385  0.1074E-29  0.6000E+02
 -18.375  0.3092E-30  0.6000E+02
 -18.365  0.8808E-31  0.6000E+02
 -18.355  0.2482E-31  0.6000E+02
 -18.345  0.6918E-32  0.6000E+02
 -18.335  0.1907E-32  0.6000E+02
 -18.325  0.5203E-33  0.6000E+02
 -18.315  0.1404E-33  0.6000E+02
 -18.305  0.3748E-34  0.6000E+02
 -18.295  0.9898E-35  0.6000E+02
 -18.285  0.2586E-35  0.6000E+02
 -18.275  0.6682E-36  0.6000E+02
 -18.265  0.1708E-36  0.6000E+02
 -18.255  0.4320E-37  0.6000E+02
 -18.245  0.1081E-37  0.6000E+02
 -18.235  0.2675E-38  0.6000E+02
 -18.225  0.6550E-39  0.6000E+02
 -18.215  0.1587E-39  0.6000E+02
 -18.205  0.3801E-40  0.6000E+02
 -18.195  0.9011E-41  0.6000E+02
 -18.185  0.2113E-41  0.6000E+02
 -18.175  0.4901E-42  0.6000E+02
 -18.165  0.1125E-42  0.6000E+02
 -18.155  0.2553E-43  0.6000E+02
 -18.145  0.5734E-44  0.6000E+02
 -18.135  0.1274E-44  0.6000E+02
 -18.125  0.2799E-45  0.6000E+02
 -18.115  0.6086E-46  0.6000E+02
 -18.105  0.1309E-46  0.6000E+02
 -18.095  0.2785E-47  0.6000E+02
 -18.085  0.5861E-48  0.6000E+02
 -18.075  0.1220E-48  0.6000E+02
 -18.065  0.2514E-49  0.6000E+02
 -18.055  0.5122E-50  0.6000E+02
 -18.045  0.1032E-50  0.6000E+02
 -18.035  0.2059E-51  0.6000E+02
 -18.025  0.4061E-52  0.6000E+02
 -18.015  0.7924E-53  0.6000E+02
 -18.005  0.1530E-53  0.6000E+02
 -17.995  0.2921E-54  0.6000E+02
 -17.985  0.5519E-55  0.6000E+02
 -17.975  0.1031E-55  0.6000E+02
 -17.965  0.1907E-56  0.6000E+02
 -17.955  0.3488E-57  0.6000E+02
 -17.945  0.6310E-58  0.6000E+02
 -17.935  0.1129E-58  0.6000E+02
 -17.925  0.2000E-59  0.6000E+02
 -17.915  0.3503E-60  0.6000E+02
 -17.905  0.6069E-61  0.6000E+02
 -17.895  0.1040E-61  0.6000E+02
 -17.885  0.1764E-62  0.6000E+02
 -17.875  0.2959E-63  0.6000E+02
 -17.865  0.4911E-64  0.6000E+02
 -17.855  0.8061E-65  0.6000E+02
 -17.845  0.1309E-65  0.6000E+02
 -17.835  0.2103E-66  0.6000E+02
 -17.825  0.3343E-67  0.6000E+02
 -17.815  0.5255E-68  0.6000E+02
 -17.805  0.8173E-69  0.6000E+02
 -17.795  0.1258E-69  0.6000E+02
 -17.785  0.1914E-70  0.6000E+02
 -17.775  0.2882E-71  0.6000E+02
 -17.765  0.4293E-72  0.6000E+02
 -17.755  0.6325E-73  0.6000E+02
 -17.745  0.9220E-74  0.6000E+02
 -17.735  0.1330E-74  0.6000E+02
 -17.725  0.1897E-75  0.6000E+02
 -17.715  0.2677E-76  0.6000E+02
 -17.705  0.3737E-77  0.6000E+02
 -17.695  0.5160E-78  0.6000E+02
 -17.685  0.7050E-79  0.6000E+02
 -17.675  0.9530E-80  0.6000E+02
 -17.665  0.1275E-80  0.6000E+02
 -17.655  0.1701E-81  0.6000E+02
 -17.645  0.2366E-82  0.6000E+02
 -17.635  0.4472E-83  0.6000E+02
 -17.625  0.1984E-83  0.6000E+02
 -17.615  0.1665E-83  0.6000E+02
 -17.605  0.1630E-83  0.6000E+02
 -17.595  0.1630E-83  0.6000E+02
 -17.585  0.1630E-83  0.6000E+02
 -17.575  0.1630E-83  0.6000E+02
 -17.565  0.1630E-83  0.6000E+02
 -17.555  0.1630E-83  0.6000E+02
 -17.545  0.1630E-83  0.6000E+02
 -17.535  0.1630E-83  0.6000E+02
 -17.525  0.1630E-83  0.6000E+02
 -17.515  0.1630E-83  0.6000E+02
 -17.505  0.1630E-83  0.6000E+02
 -17.495  0.1630E-83  0.6000E+02
 -17.485  0.1630E-83  0.6000E+02
 -17.475  0.1630E-83  0.6000E+02
 -17.465  0.1630E-83  0.6000E+02
 -17.455  0.1630E-83  0.6000E+02
 -17.445  0.1630E-83  0.6000E+02
 -17.435  0.1630E-83  0.6000E+02
 -17.425  0.1630E-83  0.6000E+02
 -17.415  0.1630E-83  0.6000E+02
 -17.405  0.1630E-83  0.6000E+02
 -17.395  0.1630E-83  0.6000E+02
 -17.385  0.1630E-83  0.6000E+02
 -17.375  0.1630E-83  0.6000E+02
 -17.365  0.1630E-83  0.6000E+02
 -17.355  0.1630E-83  0.6000E+02
 -17.345  0.1630E-83  0.6000E+02
 -17.335  0.1630E-83  0.6000E+02
 -17.325  0.1630E-83  0.6000E+02
 -17.315  0.1630E-83  0.6000E+02
 -17.305  0.1630E-83  0.6000E+02
 -17.295  0.1630E-83  0.6000E+02
 -17.285  0.1630E-83  0.6000E+02
 -17.275  0.1647E-83  0.6000E+02
 -17.265  0.1848E-83  0.6000E+02
 -17.255  0.3420E-83  0.6000E+02
 -17.245  0.1557E-82  0.6000E+02
 -17.235  0.1085E-81  0.6000E+02
 -17.225  0.8118E-81  0.6000E+02
 -17.215  0.6076E-80  0.6000E+02
 -17.205  0.4506E-79  0.6000E+02
 -17.195  0.3306E-78  0.6000E+02
 -17.185  0.2400E-77  0.6000E+02
 -17.175  0.1723E-76  0.6000E+02
 -17.165  0.1224E-75  0.6000E+02
 -17.155  0.8601E-75  0.6000E+02
 -17.145  0.5979E-74  0.6000E+02
 -17.135  0.4112E-73  0.6000E+02
 -17.125  0.2797E-72  0.6000E+02
 -17.115  0.1882E-71  0.6000E+02
 -17.105  0.1253E-70  0.6000E+02
 -17.095  0.8254E-70  0.6000E+02
 -17.085  0.5378E-69  0.6000E+02
 -17.075  0.3466E-68  0.6000E+02
 -17.065  0.2210E-67  0.6000E+02
 -17.055  0.1394E-66  0.6000E+02
 -17.045  0.8697E-66  0.6000E+02
 -17.035  0.5369E-65  0.6000E+02
 -17.025  0.3278E-64  0.6000E+02
 -17.015  0.1980E-63  0.6000E+02
 -17.005  0.1183E-62  0.6000E+02
 -16.995  0.6995E-62  0.6000E+02
 -16.985  0.4091E-61  0.6000E+02
 -16.975  0.2367E-60  0.6000E+02
 -16.965  0.1354E-59  0.6000E+02
 -16.955  0.7668E-59  0.6000E+02
 -16.945  0.4295E-58  0.6000E+02
 -16.935  0.2379E-57  0.6000E+02
 -16.925  0.1304E-56  0.6000E+02
 -16.915  0.7071E-56  0.6000E+02
 -16.905  0.3793E-55  0.6000E+02
 -16.895  0.2013E-54  0.6000E+02
 -16.885  0.1056E-53  0.6000E+02
 -16.875  0.5486E-53  0.6000E+02
 -16.865  0.2818E-52  0.6000E+02
 -16.855  0.1432E-51  0.6000E+02
 -16.845  0.7199E-51  0.6000E+02
 -16.835  0.3580E-50  0.6000E+02
 -16.825  0.1761E-49  0.6000E+02
 -16.815  0.8572E-49  0.6000E+02
 -16.805  0.4127E-48  0.6000E+02
 -16.795  0.1965E-47  0.6000E+02
 -16.785  0.9261E-47  0.6000E+02
 -16.775  0.4316E-46  0.6000E+02
 -16.765  0.1990E-45  0.6000E+02
 -16.755  0.9078E-45  0.6000E+02
 -16.745  0.4096E-44  0.6000E+02
 -16.735  0.1828E-43  0.6000E+02
 -16.725  0.8074E-43  0.6000E+02
 -16.715  0.3527E-42  0.6000E+02
 -16.705  0.1524E-41  0.6000E+02
 -16.695  0.6516E-41  0.6000E+02
 -16.685  0.2756E-40  0.6000E+02
 -16.675  0.1153E-39  0.6000E+02
 -16.665  0.4771E-39  0.6000E+02
 -16.655  0.1953E-38  0.6000E+02
 -16.645  0.7912E-38  0.6000E+02
 -16.635  0.3170E-37  0.6000E+02
 -16.625  0.1256E-36  0.6000E+02
 -16.615  0.4927E-36  0.6000E+02
 -16.605  0.1911E-35  0.6000E+02
 -16.595  0.7333E-35  0.6000E+02
 -16.585  0.2783E-34  0.6000E+02
 -16.575  0.1045E-33  0.6000E+02
 -16.565  0.3883E-33  0.6000E+02
 -16.555  0.1427E-32  0.6000E+02
 -16.545  0.5187E-32  0.6000E+02
 -16.535  0.1866E-31  0.6000E+02
 -16.525  0.6637E-31  0.6000E+02
 -16.515  0.2336E-30  0.6000E+02
 -16.505  0.8133E-30  0.6000E+02
 -16.495  0.2801E-29  0.6000E+02
 -16.485  0.9544E-29  0.6000E+02
 -16.475  0.3217E-28  0.6000E+02
 -16.465  0.1073E-27  0.6000E+02
 -16.455  0.3538E-27  0.6000E+02
 -16.445  0.1155E-26  0.6000E+02
 -16.435  0.3727E-26  0.6000E+02
 -16.425  0.1190E-25  0.6000E+02
 -16.415  0.3760E-25  0.6000E+02
 -16.405  0.1175E-24  0.6000E+02
 -16.395  0.3632E-24  0.6000E+02
 -16.385  0.1111E-23  0.6000E+02
 -16.375  0.3361E-23  0.6000E+02
 -16.365  0.1006E-22  0.6000E+02
 -16.355  0.2978E-22  0.6000E+02
 -16.345  0.8723E-22  0.6000E+02
 -16.335  0.2527E-21  0.6000E+02
 -16.325  0.7244E-21  0.6000E+02
 -16.315  0.2054E-20  0.6000E+02
 -16.305  0.5762E-20  0.6000E+02
 -16.295  0.1599E-19  0.6000E+02
 -16.285  0.4389E-19  0.6000E+02
 -16.275  0.1192E-18  0.6000E+02
 -16.265  0.3202E-18  0.6000E+02
 -16.255  0.8509E-18  0.6000E+02
 -16.245  0.2237E-17  0.6000E+02
 -16.235  0.5818E-17  0.6000E+02
 -16.225  0.1497E-16  0.6000E+02
 -16.215  0.3810E-16  0.6000E+02
 -16.205  0.9592E-16  0.6000E+02
 -16.195  0.2389E-15  0.6000E+02
 -16.185  0.5887E-15  0.6000E+02
 -16.175  0.1435E-14  0.6000E+02
 -16.165  0.3460E-14  0.6000E+02
 -16.155  0.8254E-14  0.6000E+02
 -16.145  0.1948E-13  0.6000E+02
 -16.135  0.4547E-13  0.6000E+02
 -16.125  0.1050E-12  0.6000E+02
 -16.115  0.2399E-12  0.6000E+02
 -16.105  0.5421E-12  0.6000E+02
 -16.095  0.1212E-11  0.6000E+02
 -16.085  0.2680E-11  0.6000E+02
 -16.075  0.5865E-11  0.6000E+02
 -16.065  0.1269E-10  0.6000E+02
 -16.055  0.2718E-10  0.6000E+02
 -16.045  0.5757E-10  0.6000E+02
 -16.035  0.1206E-09  0.6000E+02
 -16.025  0.2500E-09  0.6000E+02
 -16.015  0.5127E-09  0.6000E+02
 -16.005  0.1040E-08  0.6000E+02
 -15.995  0.2087E-08  0.6000E+02
 -15.985  0.4144E-08  0.6000E+02
 -15.975  0.8138E-08  0.6000E+02
 -15.965  0.1581E-07  0.6000E+02
 -15.955  0.3039E-07  0.6000E+02
 -15.945  0.5778E-07  0.6000E+02
 -15.935  0.1087E-06  0.6000E+02
 -15.925  0.2022E-06  0.6000E+02
 -15.915  0.3722E-06  0.6000E+02
 -15.905  0.6778E-06  0.6000E+02
 -15.895  0.1221E-05  0.6000E+02
 -15.885  0.2176E-05  0.6000E+02
 -15.875  0.3836E-05  0.6000E+02
 -15.865  0.6691E-05  0.6000E+02
 -15.855  0.1155E-04  0.6000E+02
 -15.845  0.1971E-04  0.6000E+02
 -15.835  0.3328E-04  0.6000E+02
 -15.825  0.5559E-04  0.6000E+02
 -15.815  0.9188E-04  0.6000E+02
 -15.805  0.1502E-03  0.6000E+02
 -15.795  0.2430E-03  0.6000E+02
 -15.785  0.3888E-03  0.6000E+02
 -15.775  0.6156E-03  0.6000E+02
 -15.765  0.9641E-03  0.6000E+02
 -15.755  0.1494E-02  0.6000E+02
 -15.745  0.2290E-02  0.6000E+02
 -15.735  0.3474E-02  0.6000E+02
 -15.725  0.5214E-02  0.6000E+02
 -15.715  0.7741E-02  0.6000E+02
 -15.705  0.1137E-01  0.6000E+02
 -15.695  0.1653E-01  0.6000E+02
 -15.685  0.2378E-01  0.6000E+02
 -15.675  0.3384E-01  0.6000E+02
 -15.665  0.4766E-01  0.6000E+02
 -15.655  0.6641E-01  0.6000E+02
 -15.645  0.9160E-01  0.6000E+02
 -15.635  0.1250E+00  0.6000E+02
 -15.625  0.1689E+00  0.6001E+02
 -15.615  0.2258E+00  0.6001E+02
 -15.605  0.2989E+00  0.6001E+02
 -15.595  0.3915E+00  0.6002E+02
 -15.585  0.5079E+00  0.6002E+02
 -15.575  0.6522E+00  0.6003E+02
 -15.565  0.8294E+00  0.6004E+02
 -15.555  0.1045E+01  0.6005E+02
 -15.545  0.1303E+01  0.6006E+02
 -15.535  0.1610E+01  0.6007E+02
 -15.525  0.1971E+01  0.6009E+02
 -15.515  0.2391E+01  0.6012E+02
 -15.505  0.2875E+01  0.6015E+02
 -15.495  0.3428E+01  0.6018E+02
 -15.485  0.4052E+01  0.6022E+02
 -15.475  0.4750E+01  0.6027E+02
 -15.465  0.5524E+01  0.6032E+02
 -15.455  0.6376E+01  0.6039E+02
 -15.445  0.7304E+01  0.6046E+02
 -15.435  0.8308E+01  0.6054E+02
 -15.425  0.9385E+01  0.6064E+02
 -15.415  0.1053E+02  0.6074E+02
 -15.405  0.1174E+02  0.6086E+02
 -15.395  0.1302E+02  0.6099E+02
 -15.385  0.1434E+02  0.6113E+02
 -15.375  0.1572E+02  0.6129E+02
 -15.365  0.1713E+02  0.6146E+02
 -15.355  0.1857E+02  0.6165E+02
 -15.345  0.2002E+02  0.6185E+02
 -15.335  0.2148E+02  0.6206E+02
 -15.325  0.2293E+02  0.6229E+02
 -15.315  0.2436E+02  0.6254E+02
 -15.305  0.2575E+02  0.6279E+02
 -15.295  0.2708E+02  0.6307E+02
 -15.285  0.2834E+02  0.6335E+02
 -15.275  0.2951E+02  0.6364E+02
 -15.265  0.3057E+02  0.6395E+02
 -15.255  0.3152E+02  0.6426E+02
 -15.245  0.3232E+02  0.6459E+02
 -15.235  0.3299E+02  0.6492E+02
 -15.225  0.3350E+02  0.6525E+02
 -15.215  0.3384E+02  0.6559E+02
 -15.205  0.3403E+02  0.6593E+02
 -15.195  0.3405E+02  0.6627E+02
 -15.185  0.3391E+02  0.6661E+02
 -15.175  0.3361E+02  0.6695E+02
 -15.165  0.3316E+02  0.6728E+02
 -15.155  0.3257E+02  0.6760E+02
 -15.145  0.3184E+02  0.6792E+02
 -15.135  0.3100E+02  0.6823E+02
 -15.125  0.3003E+02  0.6853E+02
 -15.115  0.2897E+02  0.6882E+02
 -15.105  0.2782E+02  0.6910E+02
 -15.095  0.2658E+02  0.6937E+02
 -15.085  0.2528E+02  0.6962E+02
 -15.075  0.2392E+02  0.6986E+02
 -15.065  0.2251E+02  0.7008E+02
 -15.055  0.2107E+02  0.7029E+02
 -15.045  0.1961E+02  0.7049E+02
 -15.035  0.1813E+02  0.7067E+02
 -15.025  0.1666E+02  0.7084E+02
 -15.015  0.1521E+02  0.7099E+02
 -15.005  0.1379E+02  0.7113E+02
 -14.995  0.1242E+02  0.7125E+02
 -14.985  0.1109E+02  0.7136E+02
 -14.975  0.9833E+01  0.7146E+02
 -14.965  0.8648E+01  0.7155E+02
 -14.955  0.7543E+01  0.7162E+02
 -14.945  0.6525E+01  0.7169E+02
 -14.935  0.5595E+01  0.7175E+02
 -14.925  0.4756E+01  0.7179E+02
 -14.915  0.4006E+01  0.7183E+02
 -14.905  0.3344E+01  0.7187E+02
 -14.895  0.2766E+01  0.7189E+02
 -14.885  0.2266E+01  0.7192E+02
 -14.875  0.1839E+01  0.7193E+02
 -14.865  0.1479E+01  0.7195E+02
 -14.855  0.1177E+01  0.7196E+02
 -14.845  0.9279E+00  0.7197E+02
 -14.835  0.7244E+00  0.7198E+02
 -14.825  0.5598E+00  0.7198E+02
 -14.815  0.4284E+00  0.7199E+02
 -14.805  0.3245E+00  0.7199E+02
 -14.795  0.2434E+00  0.7199E+02
 -14.785  0.1807E+00  0.7200E+02
 -14.775  0.1328E+00  0.7200E+02
 -14.765  0.9660E-01  0.7200E+02
 -14.755  0.6958E-01  0.7200E+02
 -14.745  0.4963E-01  0.7200E+02
 -14.735  0.3510E-01  0.7200E+02
 -14.725  0.2465E-01  0.7200E+02
 -14.715  0.1728E-01  0.7200E+02
 -14.705  0.1221E-01  0.7200E+02
 -14.695  0.8892E-02  0.7200E+02
 -14.685  0.6931E-02  0.7200E+02
 -14.675  0.6093E-02  0.7200E+02
 -14.665  0.6277E-02  0.7200E+02
 -14.655  0.7504E-02  0.7200E+02
 -14.645  0.9927E-02  0.7200E+02
 -14.635  0.1383E-01  0.7200E+02
 -14.625  0.1967E-01  0.7200E+02
 -14.615  0.2807E-01  0.7200E+02
 -14.605  0.3989E-01  0.7200E+02
 -14.595  0.5628E-01  0.7200E+02
 -14.585  0.7867E-01  0.7200E+02
 -14.575  0.1089E+00  0.7200E+02
 -14.565  0.1493E+00  0.7201E+02
 -14.555  0.2027E+00  0.7201E+02
 -14.545  0.2724E+00  0.7201E+02
 -14.535  0.3624E+00  0.7201E+02
 -14.525  0.4774E+00  0.7202E+02
 -14.515  0.6227E+00  0.7202E+02
 -14.505  0.8043E+00  0.7203E+02
 -14.495  0.1029E+01  0.7204E+02
 -14.485  0.1303E+01  0.7206E+02
 -14.475  0.1635E+01  0.7207E+02
 -14.465  0.2031E+01  0.7209E+02
 -14.455  0.2500E+01  0.7212E+02
 -14.445  0.3047E+01  0.7215E+02
 -14.435  0.3680E+01  0.7218E+02
 -14.425  0.4402E+01  0.7223E+02
 -14.415  0.5217E+01  0.7228E+02
 -14.405  0.6125E+01  0.7234E+02
 -14.395  0.7125E+01  0.7241E+02
 -14.385  0.8212E+01  0.7250E+02
 -14.375  0.9378E+01  0.7259E+02
 -14.365  0.1061E+02  0.7270E+02
 -14.355  0.1190E+02  0.7281E+02
 -14.345  0.1322E+02  0.7295E+02
 -14.335  0.1456E+02  0.7309E+02
 -14.325  0.1588E+02  0.7325E+02
 -14.315  0.1717E+02  0.7342E+02
 -14.305  0.1840E+02  0.7361E+02
 -14.295  0.1954E+02  0.7380E+02
 -14.285  0.2055E+02  0.7401E+02
 -14.275  0.2143E+02  0.7422E+02
 -14.265  0.2214E+02  0.7444E+02
 -14.255  0.2267E+02  0.7467E+02
 -14.245  0.2299E+02  0.7490E+02
 -14.235  0.2311E+02  0.7513E+02
 -14.225  0.2302E+02  0.7536E+02
 -14.215  0.2271E+02  0.7559E+02
 -14.205  0.2220E+02  0.7581E+02
 -14.195  0.2150E+02  0.7603E+02
 -14.185  0.2063E+02  0.7623E+02
 -14.175  0.1961E+02  0.7643E+02
 -14.165  0.1847E+02  0.7661E+02
 -14.155  0.1723E+02  0.7678E+02
 -14.145  0.1593E+02  0.7694E+02
 -14.135  0.1459E+02  0.7709E+02
 -14.125  0.1324E+02  0.7722E+02
 -14.115  0.1192E+02  0.7734E+02
 -14.105  0.1065E+02  0.7745E+02
 -14.095  0.9447E+01  0.7754E+02
 -14.085  0.8334E+01  0.7763E+02
 -14.075  0.7328E+01  0.7770E+02
 -14.065  0.6442E+01  0.7776E+02
 -14.055  0.5685E+01  0.7782E+02
 -14.045  0.5065E+01  0.7787E+02
 -14.035  0.4585E+01  0.7792E+02
 -14.025  0.4250E+01  0.7796E+02
 -14.015  0.4060E+01  0.7800E+02
 -14.005  0.4013E+01  0.7804E+02
 -13.995  0.4109E+01  0.7808E+02
 -13.985  0.4345E+01  0.7812E+02
 -13.975  0.4717E+01  0.7817E+02
 -13.965  0.5219E+01  0.7822E+02
 -13.955  0.5847E+01  0.7828E+02
 -13.945  0.6594E+01  0.7835E+02
 -13.935  0.7449E+01  0.7842E+02
 -13.925  0.8404E+01  0.7851E+02
 -13.915  0.9446E+01  0.7860E+02
 -13.905  0.1056E+02  0.7871E+02
 -13.895  0.1173E+02  0.7882E+02
 -13.885  0.1294E+02  0.7895E+02
 -13.875  0.1417E+02  0.7910E+02
 -13.865  0.1539E+02  0.7925E+02
 -13.855  0.1659E+02  0.7942E+02
 -13.845  0.1773E+02  0.7959E+02
 -13.835  0.1880E+02  0.7978E+02
 -13.825  0.1977E+02  0.7998E+02
 -13.815  0.2062E+02  0.8018E+02
 -13.805  0.2132E+02  0.8040E+02
 -13.795  0.2187E+02  0.8062E+02
 -13.785  0.2224E+02  0.8084E+02
 -13.775  0.2242E+02  0.8106E+02
 -13.765  0.2241E+02  0.8129E+02
 -13.755  0.2221E+02  0.8151E+02
 -13.745  0.2181E+02  0.8173E+02
 -13.735  0.2124E+02  0.8194E+02
 -13.725  0.2049E+02  0.8214E+02
 -13.715  0.1960E+02  0.8234E+02
 -13.705  0.1857E+02  0.8253E+02
 -13.695  0.1743E+02  0.8270E+02
 -13.685  0.1622E+02  0.8286E+02
 -13.675  0.1495E+02  0.8301E+02
 -13.665  0.1365E+02  0.8315E+02
 -13.655  0.1234E+02  0.8327E+02
 -13.645  0.1105E+02  0.8338E+02
 -13.635  0.9804E+01  0.8348E+02
 -13.625  0.8614E+01  0.8357E+02
 -13.615  0.7496E+01  0.8364E+02
 -13.605  0.6461E+01  0.8371E+02
 -13.595  0.5517E+01  0.8376E+02
 -13.585  0.4670E+01  0.8381E+02
 -13.575  0.3920E+01  0.8385E+02
 -13.565  0.3269E+01  0.8388E+02
 -13.555  0.2713E+01  0.8391E+02
 -13.545  0.2250E+01  0.8393E+02
 -13.535  0.1875E+01  0.8395E+02
 -13.525  0.1585E+01  0.8396E+02
 -13.515  0.1376E+01  0.8398E+02
 -13.505  0.1245E+01  0.8399E+02
 -13.495  0.1192E+01  0.8400E+02
 -13.485  0.1215E+01  0.8401E+02
 -13.475  0.1317E+01  0.8403E+02
 -13.465  0.1501E+01  0.8404E+02
 -13.455  0.1772E+01  0.8406E+02
 -13.445  0.2137E+01  0.8408E+02
 -13.435  0.2603E+01  0.8411E+02
 -13.425  0.3180E+01  0.8414E+02
 -13.415  0.3875E+01  0.8418E+02
 -13.405  0.4699E+01  0.8423E+02
 -13.395  0.5659E+01  0.8428E+02
 -13.385  0.6763E+01  0.8435E+02
 -13.375  0.8015E+01  0.8443E+02
 -13.365  0.9418E+01  0.8452E+02
 -13.355  0.1097E+02  0.8463E+02
 -13.345  0.1267E+02  0.8476E+02
 -13.335  0.1451E+02  0.8491E+02
 -13.325  0.1647E+02  0.8507E+02
 -13.315  0.1853E+02  0.8526E+02
 -13.305  0.2069E+02  0.8546E+02
 -13.295  0.2290E+02  0.8569E+02
 -13.285  0.2513E+02  0.8594E+02
 -13.275  0.2737E+02  0.8622E+02
 -13.265  0.2957E+02  0.8651E+02
 -13.255  0.3169E+02  0.8683E+02
 -13.245  0.3370E+02  0.8717E+02
 -13.235  0.3556E+02  0.8752E+02
 -13.225  0.3723E+02  0.8789E+02
 -13.215  0.3870E+02  0.8828E+02
 -13.205  0.3991E+02  0.8868E+02
 -13.195  0.4087E+02  0.8909E+02
 -13.185  0.4153E+02  0.8950E+02
 -13.175  0.4190E+02  0.8992E+02
 -13.165  0.4195E+02  0.9034E+02
 -13.155  0.4170E+02  0.9076E+02
 -13.145  0.4115E+02  0.9117E+02
 -13.135  0.4030E+02  0.9157E+02
 -13.125  0.3918E+02  0.9197E+02
 -13.115  0.3780E+02  0.9234E+02
 -13.105  0.3620E+02  0.9271E+02
 -13.095  0.3440E+02  0.9305E+02
 -13.085  0.3244E+02  0.9337E+02
 -13.075  0.3036E+02  0.9368E+02
 -13.065  0.2818E+02  0.9396E+02
 -13.055  0.2596E+02  0.9422E+02
 -13.045  0.2372E+02  0.9446E+02
 -13.035  0.2149E+02  0.9467E+02
 -13.025  0.1931E+02  0.9486E+02
 -13.015  0.1721E+02  0.9504E+02
 -13.005  0.1521E+02  0.9519E+02
 -12.995  0.1332E+02  0.9532E+02
 -12.985  0.1157E+02  0.9544E+02
 -12.975  0.9963E+01  0.9554E+02
 -12.965  0.8501E+01  0.9562E+02
 -12.955  0.7189E+01  0.9569E+02
 -12.945  0.6024E+01  0.9575E+02
 -12.935  0.5003E+01  0.9580E+02
 -12.925  0.4116E+01  0.9585E+02
 -12.915  0.3355E+01  0.9588E+02
 -12.905  0.2709E+01  0.9591E+02
 -12.895  0.2167E+01  0.9593E+02
 -12.885  0.1717E+01  0.9594E+02
 -12.875  0.1347E+01  0.9596E+02
 -12.865  0.1047E+01  0.9597E+02
 -12.855  0.8060E+00  0.9598E+02
 -12.845  0.6144E+00  0.9598E+02
 -12.835  0.4637E+00  0.9599E+02
 -12.825  0.3465E+00  0.9599E+02
 -12.815  0.2564E+00  0.9599E+02
 -12.805  0.1879E+00  0.9600E+02
 -12.795  0.1363E+00  0.9600E+02
 -12.785  0.9786E-01  0.9600E+02
 -12.775  0.6957E-01  0.9600E+02
 -12.765  0.4896E-01  0.9600E+02
 -12.755  0.3411E-01  0.9600E+02
 -12.745  0.2352E-01  0.9600E+02
 -12.735  0.1606E-01  0.9600E+02
 -12.725  0.1085E-01  0.9600E+02
 -12.715  0.7255E-02  0.9600E+02
 -12.705  0.4802E-02  0.9600E+02
 -12.695  0.3146E-02  0.9600E+02
 -12.685  0.2040E-02  0.9600E+02
 -12.675  0.1309E-02  0.9600E+02
 -12.665  0.8312E-03  0.9600E+02
 -12.655  0.5224E-03  0.9600E+02
 -12.645  0.3249E-03  0.9600E+02
 -12.635  0.2000E-03  0.9600E+02
 -12.625  0.1218E-03  0.9600E+02
 -12.615  0.7344E-04  0.9600E+02
 -12.605  0.4381E-04  0.9600E+02
 -12.595  0.2586E-04  0.9600E+02
 -12.585  0.1510E-04  0.9600E+02
 -12.575  0.8729E-05  0.9600E+02
 -12.565  0.4993E-05  0.9600E+02
 -12.555  0.2825E-05  0.9600E+02
 -12.545  0.1582E-05  0.9600E+02
 -12.535  0.8766E-06  0.9600E+02
 -12.525  0.4806E-06  0.9600E+02
 -12.515  0.2607E-06  0.9600E+02
 -12.505  0.1399E-06  0.9600E+02
 -12.495  0.7433E-07  0.9600E+02
 -12.485  0.3907E-07  0.9600E+02
 -12.475  0.2033E-07  0.9600E+02
 -12.465  0.1051E-07  0.9600E+02
 -12.455  0.5450E-08  0.9600E+02
 -12.445  0.2955E-08  0.9600E+02
 -12.435  0.1903E-08  0.9600E+02
 -12.425  0.1810E-08  0.9600E+02
 -12.415  0.2630E-08  0.9600E+02
 -12.405  0.4732E-08  0.9600E+02
 -12.395  0.9049E-08  0.9600E+02
 -12.385  0.1744E-07  0.9600E+02
 -12.375  0.3342E-07  0.9600E+02
 -12.365  0.6341E-07  0.9600E+02
 -12.355  0.1191E-06  0.9600E+02
 -12.345  0.2212E-06  0.9600E+02
 -12.335  0.4064E-06  0.9600E+02
 -12.325  0.7388E-06  0.9600E+02
 -12.315  0.1329E-05  0.9600E+02
 -12.305  0.2364E-05  0.9600E+02
 -12.295  0.4160E-05  0.9600E+02
 -12.285  0.7242E-05  0.9600E+02
 -12.275  0.1247E-04  0.9600E+02
 -12.265  0.2125E-04  0.9600E+02
 -12.255  0.3582E-04  0.9600E+02
 -12.245  0.5972E-04  0.9600E+02
 -12.235  0.9851E-04  0.9600E+02
 -12.225  0.1607E-03  0.9600E+02
 -12.215  0.2595E-03  0.9600E+02
 -12.205  0.4143E-03  0.9600E+02
 -12.195  0.6545E-03  0.9600E+02
 -12.185  0.1023E-02  0.9600E+02
 -12.175  0.1581E-02  0.9600E+02
 -12.165  0.2418E-02  0.9600E+02
 -12.155  0.3658E-02  0.9600E+02
 -12.145  0.5474E-02  0.9600E+02
 -12.135  0.8105E-02  0.9600E+02
 -12.125  0.1187E-01  0.9600E+02
 -12.115  0.1720E-01  0.9600E+02
 -12.105  0.2465E-01  0.9600E+02
 -12.095  0.3495E-01  0.9600E+02
 -12.085  0.4903E-01  0.9600E+02
 -12.075  0.6803E-01  0.9600E+02
 -12.065  0.9338E-01  0.9600E+02
 -12.055  0.1268E+00  0.9600E+02
 -12.045  0.1703E+00  0.9601E+02
 -12.035  0.2264E+00  0.9601E+02
 -12.025  0.2976E+00  0.9601E+02
 -12.015  0.3870E+00  0.9602E+02
 -12.005  0.4979E+00  0.9602E+02
 -11.995  0.6337E+00  0.9603E+02
 -11.985  0.7978E+00  0.9603E+02
 -11.975  0.9937E+00  0.9604E+02
 -11.965  0.1224E+01  0.9606E+02
 -11.955  0.1492E+01  0.9607E+02
 -11.945  0.1800E+01  0.9609E+02
 -11.935  0.2147E+01  0.9611E+02
 -11.925  0.2533E+01  0.9614E+02
 -11.915  0.2957E+01  0.9617E+02
 -11.905  0.3416E+01  0.9620E+02
 -11.895  0.3902E+01  0.9624E+02
 -11.885  0.4411E+01  0.9628E+02
 -11.875  0.4933E+01  0.9633E+02
 -11.865  0.5458E+01  0.9639E+02
 -11.855  0.5974E+01  0.9645E+02
 -11.845  0.6471E+01  0.9651E+02
 -11.835  0.6935E+01  0.9658E+02
 -11.825  0.7355E+01  0.9665E+02
 -11.815  0.7719E+01  0.9673E+02
 -11.805  0.8020E+01  0.9681E+02
 -11.795  0.8249E+01  0.9689E+02
 -11.785  0.8402E+01  0.9698E+02
 -11.775  0.8478E+01  0.9706E+02
 -11.765  0.8477E+01  0.9715E+02
 -11.755  0.8406E+01  0.9723E+02
 -11.745  0.8271E+01  0.9731E+02
 -11.735  0.8082E+01  0.9740E+02
 -11.725  0.7854E+01  0.9747E+02
 -11.715  0.7601E+01  0.9755E+02
 -11.705  0.7337E+01  0.9762E+02
 -11.695  0.7079E+01  0.9769E+02
 -11.685  0.6841E+01  0.9776E+02
 -11.675  0.6638E+01  0.9783E+02
 -11.665  0.6481E+01  0.9789E+02
 -11.655  0.6379E+01  0.9796E+02
 -11.645  0.6337E+01  0.9802E+02
 -11.635  0.6358E+01  0.9808E+02
 -11.625  0.6441E+01  0.9815E+02
 -11.615  0.6581E+01  0.9821E+02
 -11.605  0.6771E+01  0.9828E+02
 -11.595  0.6999E+01  0.9835E+02
 -11.585  0.7254E+01  0.9843E+02
 -11.575  0.7519E+01  0.9850E+02
 -11.565  0.7781E+01  0.9858E+02
 -11.555  0.8023E+01  0.9866E+02
 -11.545  0.8232E+01  0.9874E+02
 -11.535  0.8393E+01  0.9882E+02
 -11.525  0.8498E+01  0.9891E+02
 -11.515  0.8538E+01  0.9899E+02
 -11.505  0.8508E+01  0.9908E+02
 -11.495  0.8407E+01  0.9916E+02
 -11.485  0.8238E+01  0.9925E+02
 -11.475  0.8006E+01  0.9933E+02
 -11.465  0.7720E+01  0.9940E+02
 -11.455  0.7391E+01  0.9948E+02
 -11.445  0.7033E+01  0.9955E+02
 -11.435  0.6661E+01  0.9961E+02
 -11.425  0.6290E+01  0.9968E+02
 -11.415  0.5936E+01  0.9974E+02
 -11.405  0.5613E+01  0.9979E+02
 -11.395  0.5336E+01  0.9985E+02
 -11.385  0.5115E+01  0.9990E+02
 -11.375  0.4960E+01  0.9995E+02
 -11.365  0.4878E+01  0.1000E+03
 -11.355  0.4871E+01  0.1000E+03
 -11.345  0.4941E+01  0.1001E+03
 -11.335  0.5083E+01  0.1001E+03
 -11.325  0.5292E+01  0.1002E+03
 -11.315  0.5559E+01  0.1003E+03
 -11.305  0.5873E+01  0.1003E+03
 -11.295  0.6220E+01  0.1004E+03
 -11.285  0.6584E+01  0.1004E+03
 -11.275  0.6951E+01  0.1005E+03
 -11.265  0.7304E+01  0.1006E+03
 -11.255  0.7626E+01  0.1007E+03
 -11.245  0.7904E+01  0.1007E+03
 -11.235  0.8124E+01  0.1008E+03
 -11.225  0.8275E+01  0.1009E+03
 -11.215  0.8350E+01  0.1010E+03
 -11.205  0.8343E+01  0.1011E+03
 -11.195  0.8252E+01  0.1012E+03
 -11.185  0.8078E+01  0.1012E+03
 -11.175  0.7826E+01  0.1013E+03
 -11.165  0.7502E+01  0.1014E+03
 -11.155  0.7116E+01  0.1015E+03
 -11.145  0.6678E+01  0.1015E+03
 -11.135  0.6200E+01  0.1016E+03
 -11.125  0.5695E+01  0.1016E+03
 -11.115  0.5175E+01  0.1017E+03
 -11.105  0.4652E+01  0.1017E+03
 -11.095  0.4137E+01  0.1018E+03
 -11.085  0.3640E+01  0.1018E+03
 -11.075  0.3168E+01  0.1019E+03
 -11.065  0.2728E+01  0.1019E+03
 -11.055  0.2324E+01  0.1019E+03
 -11.045  0.1958E+01  0.1019E+03
 -11.035  0.1632E+01  0.1019E+03
 -11.025  0.1346E+01  0.1019E+03
 -11.015  0.1098E+01  0.1020E+03
 -11.005  0.8860E+00  0.1020E+03
 -10.995  0.7073E+00  0.1020E+03
 -10.985  0.5586E+00  0.1020E+03
 -10.975  0.4364E+00  0.1020E+03
 -10.965  0.3373E+00  0.1020E+03
 -10.955  0.2579E+00  0.1020E+03
 -10.945  0.1951E+00  0.1020E+03
 -10.935  0.1460E+00  0.1020E+03
 -10.925  0.1081E+00  0.1020E+03
 -10.915  0.7919E-01  0.1020E+03
 -10.905  0.5746E-01  0.1020E+03
 -10.895  0.4132E-01  0.1020E+03
 -10.885  0.2954E-01  0.1020E+03
 -10.875  0.2109E-01  0.1020E+03
 -10.865  0.1523E-01  0.1020E+03
 -10.855  0.1137E-01  0.1020E+03
 -10.845  0.9122E-02  0.1020E+03
 -10.835  0.8248E-02  0.1020E+03
 -10.825  0.8651E-02  0.1020E+03
 -10.815  0.1038E-01  0.1020E+03
 -10.805  0.1361E-01  0.1020E+03
 -10.795  0.1868E-01  0.1020E+03
 -10.785  0.2610E-01  0.1020E+03
 -10.775  0.3656E-01  0.1020E+03
 -10.765  0.5097E-01  0.1020E+03
 -10.755  0.7049E-01  0.1020E+03
 -10.745  0.9656E-01  0.1020E+03
 -10.735  0.1309E+00  0.1020E+03
 -10.725  0.1756E+00  0.1020E+03
 -10.715  0.2331E+00  0.1020E+03
 -10.705  0.3061E+00  0.1020E+03
 -10.695  0.3976E+00  0.1020E+03
 -10.685  0.5110E+00  0.1020E+03
 -10.675  0.6495E+00  0.1020E+03
 -10.665  0.8169E+00  0.1020E+03
 -10.655  0.1016E+01  0.1020E+03
 -10.645  0.1251E+01  0.1021E+03
 -10.635  0.1523E+01  0.1021E+03
 -10.625  0.1834E+01  0.1021E+03
 -10.615  0.2185E+01  0.1021E+03
 -10.605  0.2575E+01  0.1021E+03
 -10.595  0.3003E+01  0.1022E+03
 -10.585  0.3464E+01  0.1022E+03
 -10.575  0.3952E+01  0.1022E+03
 -10.565  0.4462E+01  0.1023E+03
 -10.555  0.4982E+01  0.1023E+03
 -10.545  0.5504E+01  0.1024E+03
 -10.535  0.6015E+01  0.1025E+03
 -10.525  0.6503E+01  0.1025E+03
 -10.515  0.6956E+01  0.1026E+03
 -10.505  0.7360E+01  0.1027E+03
 -10.495  0.7705E+01  0.1027E+03
 -10.485  0.7980E+01  0.1028E+03
 -10.475  0.8178E+01  0.1029E+03
 -10.465  0.8292E+01  0.1030E+03
 -10.455  0.8320E+01  0.1031E+03
 -10.445  0.8263E+01  0.1031E+03
 -10.435  0.8123E+01  0.1032E+03
 -10.425  0.7906E+01  0.1033E+03
 -10.415  0.7623E+01  0.1034E+03
 -10.405  0.7284E+01  0.1035E+03
 -10.395  0.6903E+01  0.1035E+03
 -10.385  0.6495E+01  0.1036E+03
 -10.375  0.6075E+01  0.1037E+03
 -10.365  0.5659E+01  0.1037E+03
 -10.355  0.5263E+01  0.1038E+03
 -10.345  0.4901E+01  0.1038E+03
 -10.335  0.4586E+01  0.1039E+03
 -10.325  0.4330E+01  0.1039E+03
 -10.315  0.4142E+01  0.1039E+03
 -10.305  0.4028E+01  0.1040E+03
 -10.295  0.3992E+01  0.1040E+03
 -10.285  0.4037E+01  0.1041E+03
 -10.275  0.4159E+01  0.1041E+03
 -10.265  0.4356E+01  0.1041E+03
 -10.255  0.4621E+01  0.1042E+03
 -10.245  0.4944E+01  0.1042E+03
 -10.235  0.5315E+01  0.1043E+03
 -10.225  0.5720E+01  0.1044E+03
 -10.215  0.6147E+01  0.1044E+03
 -10.205  0.6579E+01  0.1045E+03
 -10.195  0.7004E+01  0.1046E+03
 -10.185  0.7405E+01  0.1046E+03
 -10.175  0.7771E+01  0.1047E+03
 -10.165  0.8090E+01  0.1048E+03
 -10.155  0.8352E+01  0.1049E+03
 -10.145  0.8552E+01  0.1050E+03
 -10.135  0.8687E+01  0.1050E+03
 -10.125  0.8756E+01  0.1051E+03
 -10.115  0.8764E+01  0.1052E+03
 -10.105  0.8716E+01  0.1053E+03
 -10.095  0.8623E+01  0.1054E+03
 -10.085  0.8494E+01  0.1055E+03
 -10.075  0.8344E+01  0.1056E+03
 -10.065  0.8186E+01  0.1056E+03
 -10.055  0.8034E+01  0.1057E+03
 -10.045  0.7899E+01  0.1058E+03
 -10.035  0.7792E+01  0.1059E+03
 -10.025  0.7723E+01  0.1060E+03
 -10.015  0.7695E+01  0.1060E+03
 -10.005  0.7712E+01  0.1061E+03
  -9.995  0.7772E+01  0.1062E+03
  -9.985  0.7871E+01  0.1063E+03
  -9.975  0.8000E+01  0.1063E+03
  -9.965  0.8149E+01  0.1064E+03
  -9.955  0.8307E+01  0.1065E+03
  -9.945  0.8459E+01  0.1066E+03
  -9.935  0.8593E+01  0.1067E+03
  -9.925  0.8694E+01  0.1068E+03
  -9.915  0.8752E+01  0.1069E+03
  -9.905  0.8755E+01  0.1069E+03
  -9.895  0.8697E+01  0.1070E+03
  -9.885  0.8573E+01  0.1071E+03
  -9.875  0.8382E+01  0.1072E+03
  -9.865  0.8126E+01  0.1073E+03
  -9.855  0.7810E+01  0.1074E+03
  -9.845  0.7442E+01  0.1074E+03
  -9.835  0.7032E+01  0.1075E+03
  -9.825  0.6593E+01  0.1076E+03
  -9.815  0.6137E+01  0.1076E+03
  -9.805  0.5680E+01  0.1077E+03
  -9.795  0.5235E+01  0.1077E+03
  -9.785  0.4817E+01  0.1078E+03
  -9.775  0.4438E+01  0.1078E+03
  -9.765  0.4110E+01  0.1079E+03
  -9.755  0.3844E+01  0.1079E+03
  -9.745  0.3647E+01  0.1079E+03
  -9.735  0.3525E+01  0.1080E+03
  -9.725  0.3481E+01  0.1080E+03
  -9.715  0.3518E+01  0.1081E+03
  -9.705  0.3634E+01  0.1081E+03
  -9.695  0.3825E+01  0.1081E+03
  -9.685  0.4087E+01  0.1082E+03
  -9.675  0.4411E+01  0.1082E+03
  -9.665  0.4787E+01  0.1083E+03
  -9.655  0.5205E+01  0.1083E+03
  -9.645  0.5651E+01  0.1084E+03
  -9.635  0.6112E+01  0.1084E+03
  -9.625  0.6574E+01  0.1085E+03
  -9.615  0.7023E+01  0.1086E+03
  -9.605  0.7445E+01  0.1086E+03
  -9.595  0.7829E+01  0.1087E+03
  -9.585  0.8165E+01  0.1088E+03
  -9.575  0.8445E+01  0.1089E+03
  -9.565  0.8665E+01  0.1090E+03
  -9.555  0.8822E+01  0.1091E+03
  -9.545  0.8918E+01  0.1091E+03
  -9.535  0.8958E+01  0.1092E+03
  -9.525  0.8950E+01  0.1093E+03
  -9.515  0.8904E+01  0.1094E+03
  -9.505  0.8832E+01  0.1095E+03
  -9.495  0.8748E+01  0.1096E+03
  -9.485  0.8667E+01  0.1097E+03
  -9.475  0.8603E+01  0.1098E+03
  -9.465  0.8567E+01  0.1098E+03
  -9.455  0.8573E+01  0.1099E+03
  -9.445  0.8629E+01  0.1100E+03
  -9.435  0.8741E+01  0.1101E+03
  -9.425  0.8912E+01  0.1102E+03
  -9.415  0.9143E+01  0.1103E+03
  -9.405  0.9429E+01  0.1104E+03
  -9.395  0.9766E+01  0.1105E+03
  -9.385  0.1014E+02  0.1106E+03
  -9.375  0.1055E+02  0.1107E+03
  -9.365  0.1098E+02  0.1108E+03
  -9.355  0.1142E+02  0.1109E+03
  -9.345  0.1185E+02  0.1110E+03
  -9.335  0.1226E+02  0.1112E+03
  -9.325  0.1264E+02  0.1113E+03
  -9.315  0.1297E+02  0.1114E+03
  -9.305  0.1325E+02  0.1115E+03
  -9.295  0.1348E+02  0.1117E+03
  -9.285  0.1363E+02  0.1118E+03
  -9.275  0.1370E+02  0.1120E+03
  -9.265  0.1370E+02  0.1121E+03
  -9.255  0.1362E+02  0.1122E+03
  -9.245  0.1345E+02  0.1124E+03
  -9.235  0.1321E+02  0.1125E+03
  -9.225  0.1288E+02  0.1126E+03
  -9.215  0.1248E+02  0.1127E+03
  -9.205  0.1201E+02  0.1129E+03
  -9.195  0.1148E+02  0.1130E+03
  -9.185  0.1089E+02  0.1131E+03
  -9.175  0.1025E+02  0.1132E+03
  -9.165  0.9581E+01  0.1133E+03
  -9.155  0.8881E+01  0.1134E+03
  -9.145  0.8165E+01  0.1135E+03
  -9.135  0.7444E+01  0.1135E+03
  -9.125  0.6729E+01  0.1136E+03
  -9.115  0.6029E+01  0.1137E+03
  -9.105  0.5354E+01  0.1137E+03
  -9.095  0.4711E+01  0.1138E+03
  -9.085  0.4107E+01  0.1138E+03
  -9.075  0.3546E+01  0.1138E+03
  -9.065  0.3033E+01  0.1139E+03
  -9.055  0.2569E+01  0.1139E+03
  -9.045  0.2154E+01  0.1139E+03
  -9.035  0.1789E+01  0.1139E+03
  -9.025  0.1471E+01  0.1139E+03
  -9.015  0.1197E+01  0.1140E+03
  -9.005  0.9641E+00  0.1140E+03
  -8.995  0.7686E+00  0.1140E+03
  -8.985  0.6065E+00  0.1140E+03
  -8.975  0.4736E+00  0.1140E+03
  -8.965  0.3660E+00  0.1140E+03
  -8.955  0.2799E+00  0.1140E+03
  -8.945  0.2118E+00  0.1140E+03
  -8.935  0.1586E+00  0.1140E+03
  -8.925  0.1176E+00  0.1140E+03
  -8.915  0.8623E-01  0.1140E+03
  -8.905  0.6261E-01  0.1140E+03
  -8.895  0.4504E-01  0.1140E+03
  -8.885  0.3216E-01  0.1140E+03
  -8.875  0.2287E-01  0.1140E+03
  -8.865  0.1634E-01  0.1140E+03
  -8.855  0.1193E-01  0.1140E+03
  -8.845  0.9178E-02  0.1140E+03
  -8.835  0.7796E-02  0.1140E+03
  -8.825  0.7628E-02  0.1140E+03
  -8.815  0.8656E-02  0.1140E+03
  -8.805  0.1099E-01  0.1140E+03
  -8.795  0.1488E-01  0.1140E+03
  -8.785  0.2074E-01  0.1140E+03
  -8.775  0.2913E-01  0.1140E+03
  -8.765  0.4082E-01  0.1140E+03
  -8.755  0.5681E-01  0.1140E+03
  -8.745  0.7835E-01  0.1140E+03
  -8.735  0.1070E+00  0.1140E+03
  -8.725  0.1446E+00  0.1140E+03
  -8.715  0.1933E+00  0.1140E+03
  -8.705  0.2556E+00  0.1140E+03
  -8.695  0.3345E+00  0.1140E+03
  -8.685  0.4330E+00  0.1140E+03
  -8.675  0.5545E+00  0.1140E+03
  -8.665  0.7025E+00  0.1140E+03
  -8.655  0.8804E+00  0.1140E+03
  -8.645  0.1092E+01  0.1140E+03
  -8.635  0.1339E+01  0.1141E+03
  -8.625  0.1625E+01  0.1141E+03
  -8.615  0.1951E+01  0.1141E+03
  -8.605  0.2318E+01  0.1141E+03
  -8.595  0.2725E+01  0.1141E+03
  -8.585  0.3169E+01  0.1142E+03
  -8.575  0.3647E+01  0.1142E+03
  -8.565  0.4153E+01  0.1143E+03
  -8.555  0.4680E+01  0.1143E+03
  -8.545  0.5220E+01  0.1144E+03
  -8.535  0.5764E+01  0.1144E+03
  -8.525  0.6300E+01  0.1145E+03
  -8.515  0.6819E+01  0.1145E+03
  -8.505  0.7310E+01  0.1146E+03
  -8.495  0.7763E+01  0.1147E+03
  -8.485  0.8169E+01  0.1148E+03
  -8.475  0.8523E+01  0.1149E+03
  -8.465  0.8820E+01  0.1150E+03
  -8.455  0.9059E+01  0.1150E+03
  -8.445  0.9239E+01  0.1151E+03
  -8.435  0.9365E+01  0.1152E+03
  -8.425  0.9442E+01  0.1153E+03
  -8.415  0.9478E+01  0.1154E+03
  -8.405  0.9483E+01  0.1155E+03
  -8.395  0.9466E+01  0.1156E+03
  -8.385  0.9437E+01  0.1157E+03
  -8.375  0.9405E+01  0.1158E+03
  -8.365  0.9379E+01  0.1159E+03
  -8.355  0.9362E+01  0.1160E+03
  -8.345  0.9360E+01  0.1161E+03
  -8.335  0.9371E+01  0.1162E+03
  -8.325  0.9395E+01  0.1163E+03
  -8.315  0.9426E+01  0.1164E+03
  -8.305  0.9457E+01  0.1165E+03
  -8.295  0.9479E+01  0.1165E+03
  -8.285  0.9483E+01  0.1166E+03
  -8.275  0.9459E+01  0.1167E+03
  -8.265  0.9397E+01  0.1168E+03
  -8.255  0.9289E+01  0.1169E+03
  -8.245  0.9128E+01  0.1170E+03
  -8.235  0.8910E+01  0.1171E+03
  -8.225  0.8633E+01  0.1172E+03
  -8.215  0.8299E+01  0.1173E+03
  -8.205  0.7910E+01  0.1174E+03
  -8.195  0.7473E+01  0.1174E+03
  -8.185  0.6995E+01  0.1175E+03
  -8.175  0.6487E+01  0.1176E+03
  -8.165  0.5957E+01  0.1176E+03
  -8.155  0.5417E+01  0.1177E+03
  -8.145  0.4878E+01  0.1177E+03
  -8.135  0.4351E+01  0.1178E+03
  -8.125  0.3844E+01  0.1178E+03
  -8.115  0.3366E+01  0.1178E+03
  -8.105  0.2924E+01  0.1179E+03
  -8.095  0.2523E+01  0.1179E+03
  -8.085  0.2167E+01  0.1179E+03
  -8.075  0.1860E+01  0.1179E+03
  -8.065  0.1604E+01  0.1180E+03
  -8.055  0.1399E+01  0.1180E+03
  -8.045  0.1247E+01  0.1180E+03
  -8.035  0.1147E+01  0.1180E+03
  -8.025  0.1100E+01  0.1180E+03
  -8.015  0.1105E+01  0.1180E+03
  -8.005  0.1163E+01  0.1180E+03
  -7.995  0.1274E+01  0.1180E+03
  -7.985  0.1438E+01  0.1181E+03
  -7.975  0.1654E+01  0.1181E+03
  -7.965  0.1923E+01  0.1181E+03
  -7.955  0.2242E+01  0.1181E+03
  -7.945  0.2609E+01  0.1181E+03
  -7.935  0.3023E+01  0.1182E+03
  -7.925  0.3478E+01  0.1182E+03
  -7.915  0.3969E+01  0.1182E+03
  -7.905  0.4490E+01  0.1183E+03
  -7.895  0.5032E+01  0.1183E+03
  -7.885  0.5586E+01  0.1184E+03
  -7.875  0.6143E+01  0.1185E+03
  -7.865  0.6692E+01  0.1185E+03
  -7.855  0.7223E+01  0.1186E+03
  -7.845  0.7726E+01  0.1187E+03
  -7.835  0.8193E+01  0.1188E+03
  -7.825  0.8617E+01  0.1188E+03
  -7.815  0.8992E+01  0.1189E+03
  -7.805  0.9314E+01  0.1190E+03
  -7.795  0.9584E+01  0.1191E+03
  -7.785  0.9803E+01  0.1192E+03
  -7.775  0.9974E+01  0.1193E+03
  -7.765  0.1010E+02  0.1194E+03
  -7.755  0.1019E+02  0.1195E+03
  -7.745  0.1026E+02  0.1196E+03
  -7.735  0.1030E+02  0.1197E+03
  -7.725  0.1032E+02  0.1198E+03
  -7.715  0.1034E+02  0.1199E+03
  -7.705  0.1034E+02  0.1200E+03
  -7.695  0.1035E+02  0.1201E+03
  -7.685  0.1035E+02  0.1202E+03
  -7.675  0.1034E+02  0.1203E+03
  -7.665  0.1032E+02  0.1204E+03
  -7.655  0.1029E+02  0.1205E+03
  -7.645  0.1023E+02  0.1207E+03
  -7.635  0.1016E+02  0.1208E+03
  -7.625  0.1005E+02  0.1209E+03
  -7.615  0.9912E+01  0.1210E+03
  -7.605  0.9742E+01  0.1210E+03
  -7.595  0.9540E+01  0.1211E+03
  -7.585  0.9313E+01  0.1212E+03
  -7.575  0.9068E+01  0.1213E+03
  -7.565  0.8814E+01  0.1214E+03
  -7.555  0.8564E+01  0.1215E+03
  -7.545  0.8332E+01  0.1216E+03
  -7.535  0.8133E+01  0.1217E+03
  -7.525  0.7982E+01  0.1217E+03
  -7.515  0.7894E+01  0.1218E+03
  -7.505  0.7882E+01  0.1219E+03
  -7.495  0.7957E+01  0.1220E+03
  -7.485  0.8127E+01  0.1221E+03
  -7.475  0.8397E+01  0.1221E+03
  -7.465  0.8766E+01  0.1222E+03
  -7.455  0.9230E+01  0.1223E+03
  -7.445  0.9781E+01  0.1224E+03
  -7.435  0.1041E+02  0.1225E+03
  -7.425  0.1109E+02  0.1226E+03
  -7.415  0.1181E+02  0.1228E+03
  -7.405  0.1254E+02  0.1229E+03
  -7.395  0.1326E+02  0.1230E+03
  -7.385  0.1395E+02  0.1232E+03
  -7.375  0.1457E+02  0.1233E+03
  -7.365  0.1511E+02  0.1235E+03
  -7.355  0.1555E+02  0.1236E+03
  -7.345  0.1586E+02  0.1238E+03
  -7.335  0.1604E+02  0.1239E+03
  -7.325  0.1607E+02  0.1241E+03
  -7.315  0.1595E+02  0.1242E+03
  -7.305  0.1568E+02  0.1244E+03
  -7.295  0.1526E+02  0.1246E+03
  -7.285  0.1472E+02  0.1247E+03
  -7.275  0.1406E+02  0.1248E+03
  -7.265  0.1329E+02  0.1250E+03
  -7.255  0.1244E+02  0.1251E+03
  -7.245  0.1154E+02  0.1252E+03
  -7.235  0.1059E+02  0.1253E+03
  -7.225  0.9625E+01  0.1254E+03
  -7.215  0.8664E+01  0.1255E+03
  -7.205  0.7723E+01  0.1256E+03
  -7.195  0.6821E+01  0.1257E+03
  -7.185  0.5969E+01  0.1257E+03
  -7.175  0.5180E+01  0.1258E+03
  -7.165  0.4463E+01  0.1258E+03
  -7.155  0.3823E+01  0.1258E+03
  -7.145  0.3264E+01  0.1259E+03
  -7.135  0.2790E+01  0.1259E+03
  -7.125  0.2401E+01  0.1259E+03
  -7.115  0.2099E+01  0.1260E+03
  -7.105  0.1882E+01  0.1260E+03
  -7.095  0.1751E+01  0.1260E+03
  -7.085  0.1706E+01  0.1260E+03
  -7.075  0.1749E+01  0.1260E+03
  -7.065  0.1879E+01  0.1260E+03
  -7.055  0.2099E+01  0.1261E+03
  -7.045  0.2411E+01  0.1261E+03
  -7.035  0.2818E+01  0.1261E+03
  -7.025  0.3321E+01  0.1261E+03
  -7.015  0.3922E+01  0.1262E+03
  -7.005  0.4621E+01  0.1262E+03
  -6.995  0.5419E+01  0.1263E+03
  -6.985  0.6312E+01  0.1264E+03
  -6.975  0.7296E+01  0.1264E+03
  -6.965  0.8362E+01  0.1265E+03
  -6.955  0.9502E+01  0.1266E+03
  -6.945  0.1070E+02  0.1267E+03
  -6.935  0.1195E+02  0.1268E+03
  -6.925  0.1322E+02  0.1270E+03
  -6.915  0.1451E+02  0.1271E+03
  -6.905  0.1578E+02  0.1273E+03
  -6.895  0.1703E+02  0.1274E+03
  -6.885  0.1822E+02  0.1276E+03
  -6.875  0.1935E+02  0.1278E+03
  -6.865  0.2039E+02  0.1280E+03
  -6.855  0.2132E+02  0.1282E+03
  -6.845  0.2215E+02  0.1284E+03
  -6.835  0.2286E+02  0.1287E+03
  -6.825  0.2344E+02  0.1289E+03
  -6.815  0.2390E+02  0.1292E+03
  -6.805  0.2424E+02  0.1294E+03
  -6.795  0.2447E+02  0.1296E+03
  -6.785  0.2459E+02  0.1299E+03
  -6.775  0.2461E+02  0.1301E+03
  -6.765  0.2456E+02  0.1304E+03
  -6.755  0.2443E+02  0.1306E+03
  -6.745  0.2425E+02  0.1309E+03
  -6.735  0.2403E+02  0.1311E+03
  -6.725  0.2378E+02  0.1313E+03
  -6.715  0.2351E+02  0.1316E+03
  -6.705  0.2322E+02  0.1318E+03
  -6.695  0.2293E+02  0.1320E+03
  -6.685  0.2264E+02  0.1323E+03
  -6.675  0.2235E+02  0.1325E+03
  -6.665  0.2207E+02  0.1327E+03
  -6.655  0.2178E+02  0.1329E+03
  -6.645  0.2150E+02  0.1331E+03
  -6.635  0.2122E+02  0.1334E+03
  -6.625  0.2094E+02  0.1336E+03
  -6.615  0.2066E+02  0.1338E+03
  -6.605  0.2038E+02  0.1340E+03
  -6.595  0.2009E+02  0.1342E+03
  -6.585  0.1980E+02  0.1344E+03
  -6.575  0.1951E+02  0.1346E+03
  -6.565  0.1923E+02  0.1348E+03
  -6.555  0.1895E+02  0.1349E+03
  -6.545  0.1869E+02  0.1351E+03
  -6.535  0.1843E+02  0.1353E+03
  -6.525  0.1820E+02  0.1355E+03
  -6.515  0.1798E+02  0.1357E+03
  -6.505  0.1779E+02  0.1359E+03
  -6.495  0.1762E+02  0.1360E+03
  -6.485  0.1748E+02  0.1362E+03
  -6.475  0.1737E+02  0.1364E+03
  -6.465  0.1728E+02  0.1366E+03
  -6.455  0.1721E+02  0.1367E+03
  -6.445  0.1716E+02  0.1369E+03
  -6.435  0.1712E+02  0.1371E+03
  -6.425  0.1709E+02  0.1372E+03
  -6.415  0.1707E+02  0.1374E+03
  -6.405  0.1706E+02  0.1376E+03
  -6.395  0.1705E+02  0.1378E+03
  -6.385  0.1704E+02  0.1379E+03
  -6.375  0.1703E+02  0.1381E+03
  -6.365  0.1702E+02  0.1383E+03
  -6.355  0.1703E+02  0.1384E+03
  -6.345  0.1705E+02  0.1386E+03
  -6.335  0.1708E+02  0.1388E+03
  -6.325  0.1714E+02  0.1389E+03
  -6.315  0.1723E+02  0.1391E+03
  -6.305  0.1736E+02  0.1393E+03
  -6.295  0.1753E+02  0.1395E+03
  -6.285  0.1775E+02  0.1396E+03
  -6.275  0.1802E+02  0.1398E+03
  -6.265  0.1834E+02  0.1400E+03
  -6.255  0.1871E+02  0.1402E+03
  -6.245  0.1912E+02  0.1404E+03
  -6.235  0.1958E+02  0.1406E+03
  -6.225  0.2006E+02  0.1408E+03
  -6.215  0.2057E+02  0.1410E+03
  -6.205  0.2108E+02  0.1412E+03
  -6.195  0.2160E+02  0.1414E+03
  -6.185  0.2210E+02  0.1416E+03
  -6.175  0.2259E+02  0.1419E+03
  -6.165  0.2305E+02  0.1421E+03
  -6.155  0.2347E+02  0.1423E+03
  -6.145  0.2386E+02  0.1426E+03
  -6.135  0.2421E+02  0.1428E+03
  -6.125  0.2451E+02  0.1431E+03
  -6.115  0.2477E+02  0.1433E+03
  -6.105  0.2500E+02  0.1436E+03
  -6.095  0.2519E+02  0.1438E+03
  -6.085  0.2535E+02  0.1441E+03
  -6.075  0.2547E+02  0.1443E+03
  -6.065  0.2556E+02  0.1446E+03
  -6.055  0.2562E+02  0.1448E+03
  -6.045  0.2565E+02  0.1451E+03
  -6.035  0.2564E+02  0.1453E+03
  -6.025  0.2559E+02  0.1456E+03
  -6.015  0.2551E+02  0.1459E+03
  -6.005  0.2538E+02  0.1461E+03
  -5.995  0.2522E+02  0.1464E+03
  -5.985  0.2500E+02  0.1466E+03
  -5.975  0.2474E+02  0.1469E+03
  -5.965  0.2443E+02  0.1471E+03
  -5.955  0.2409E+02  0.1473E+03
  -5.945  0.2370E+02  0.1476E+03
  -5.935  0.2327E+02  0.1478E+03
  -5.925  0.2282E+02  0.1480E+03
  -5.915  0.2234E+02  0.1483E+03
  -5.905  0.2183E+02  0.1485E+03
  -5.895  0.2131E+02  0.1487E+03
  -5.885  0.2077E+02  0.1489E+03
  -5.875  0.2022E+02  0.1491E+03
  -5.865  0.1966E+02  0.1493E+03
  -5.855  0.1910E+02  0.1495E+03
  -5.845  0.1852E+02  0.1497E+03
  -5.835  0.1793E+02  0.1499E+03
  -5.825  0.1734E+02  0.1500E+03
  -5.815  0.1674E+02  0.1502E+03
  -5.805  0.1613E+02  0.1504E+03
  -5.795  0.1552E+02  0.1505E+03
  -5.785  0.1491E+02  0.1507E+03
  -5.775  0.1430E+02  0.1508E+03
  -5.765  0.1370E+02  0.1509E+03
  -5.755  0.1313E+02  0.1511E+03
  -5.745  0.1258E+02  0.1512E+03
  -5.735  0.1208E+02  0.1513E+03
  -5.725  0.1163E+02  0.1514E+03
  -5.715  0.1125E+02  0.1515E+03
  -5.705  0.1095E+02  0.1517E+03
  -5.695  0.1074E+02  0.1518E+03
  -5.685  0.1063E+02  0.1519E+03
  -5.675  0.1063E+02  0.1520E+03
  -5.665  0.1073E+02  0.1521E+03
  -5.655  0.1093E+02  0.1522E+03
  -5.645  0.1124E+02  0.1523E+03
  -5.635  0.1163E+02  0.1524E+03
  -5.625  0.1211E+02  0.1525E+03
  -5.615  0.1264E+02  0.1527E+03
  -5.605  0.1320E+02  0.1528E+03
  -5.595  0.1378E+02  0.1529E+03
  -5.585  0.1436E+02  0.1531E+03
  -5.575  0.1489E+02  0.1532E+03
  -5.565  0.1536E+02  0.1534E+03
  -5.555  0.1575E+02  0.1535E+03
  -5.545  0.1604E+02  0.1537E+03
  -5.535  0.1621E+02  0.1539E+03
  -5.525  0.1624E+02  0.1540E+03
  -5.515  0.1614E+02  0.1542E+03
  -5.505  0.1590E+02  0.1543E+03
  -5.495  0.1553E+02  0.1545E+03
  -5.485  0.1502E+02  0.1547E+03
  -5.475  0.1440E+02  0.1548E+03
  -5.465  0.1369E+02  0.1549E+03
  -5.455  0.1289E+02  0.1551E+03
  -5.445  0.1204E+02  0.1552E+03
  -5.435  0.1116E+02  0.1553E+03
  -5.425  0.1027E+02  0.1554E+03
  -5.415  0.9399E+01  0.1555E+03
  -5.405  0.8565E+01  0.1556E+03
  -5.395  0.7790E+01  0.1557E+03
  -5.385  0.7094E+01  0.1557E+03
  -5.375  0.6492E+01  0.1558E+03
  -5.365  0.6000E+01  0.1559E+03
  -5.355  0.5626E+01  0.1559E+03
  -5.345  0.5379E+01  0.1560E+03
  -5.335  0.5264E+01  0.1560E+03
  -5.325  0.5282E+01  0.1561E+03
  -5.315  0.5432E+01  0.1561E+03
  -5.305  0.5711E+01  0.1562E+03
  -5.295  0.6112E+01  0.1562E+03
  -5.285  0.6626E+01  0.1563E+03
  -5.275  0.7241E+01  0.1564E+03
  -5.265  0.7942E+01  0.1565E+03
  -5.255  0.8715E+01  0.1565E+03
  -5.245  0.9541E+01  0.1566E+03
  -5.235  0.1040E+02  0.1567E+03
  -5.225  0.1127E+02  0.1569E+03
  -5.215  0.1214E+02  0.1570E+03
  -5.205  0.1298E+02  0.1571E+03
  -5.195  0.1378E+02  0.1572E+03
  -5.185  0.1451E+02  0.1574E+03
  -5.175  0.1517E+02  0.1575E+03
  -5.165  0.1573E+02  0.1577E+03
  -5.155  0.1620E+02  0.1579E+03
  -5.145  0.1656E+02  0.1580E+03
  -5.135  0.1681E+02  0.1582E+03
  -5.125  0.1695E+02  0.1584E+03
  -5.115  0.1699E+02  0.1585E+03
  -5.105  0.1694E+02  0.1587E+03
  -5.095  0.1681E+02  0.1589E+03
  -5.085  0.1660E+02  0.1590E+03
  -5.075  0.1634E+02  0.1592E+03
  -5.065  0.1603E+02  0.1594E+03
  -5.055  0.1568E+02  0.1595E+03
  -5.045  0.1531E+02  0.1597E+03
  -5.035  0.1493E+02  0.1598E+03
  -5.025  0.1453E+02  0.1600E+03
  -5.015  0.1414E+02  0.1601E+03
  -5.005  0.1374E+02  0.1602E+03
  -4.995  0.1335E+02  0.1604E+03
  -4.985  0.1295E+02  0.1605E+03
  -4.975  0.1256E+02  0.1606E+03
  -4.965  0.1217E+02  0.1608E+03
  -4.955  0.1177E+02  0.1609E+03
  -4.945  0.1137E+02  0.1610E+03
  -4.935  0.1098E+02  0.1611E+03
  -4.925  0.1058E+02  0.1612E+03
  -4.915  0.1019E+02  0.1613E+03
  -4.905  0.9823E+01  0.1614E+03
  -4.895  0.9474E+01  0.1615E+03
  -4.885  0.9157E+01  0.1616E+03
  -4.875  0.8881E+01  0.1617E+03
  -4.865  0.8654E+01  0.1618E+03
  -4.855  0.8484E+01  0.1618E+03
  -4.845  0.8379E+01  0.1619E+03
  -4.835  0.8343E+01  0.1620E+03
  -4.825  0.8378E+01  0.1621E+03
  -4.815  0.8484E+01  0.1622E+03
  -4.805  0.8659E+01  0.1623E+03
  -4.795  0.8897E+01  0.1624E+03
  -4.785  0.9191E+01  0.1625E+03
  -4.775  0.9533E+01  0.1625E+03
  -4.765  0.9912E+01  0.1626E+03
  -4.755  0.1032E+02  0.1628E+03
  -4.745  0.1074E+02  0.1629E+03
  -4.735  0.1117E+02  0.1630E+03
  -4.725  0.1160E+02  0.1631E+03
  -4.715  0.1202E+02  0.1632E+03
  -4.705  0.1242E+02  0.1633E+03
  -4.695  0.1280E+02  0.1635E+03
  -4.685  0.1316E+02  0.1636E+03
  -4.675  0.1349E+02  0.1637E+03
  -4.665  0.1380E+02  0.1639E+03
  -4.655  0.1408E+02  0.1640E+03
  -4.645  0.1434E+02  0.1641E+03
  -4.635  0.1459E+02  0.1643E+03
  -4.625  0.1481E+02  0.1644E+03
  -4.615  0.1501E+02  0.1646E+03
  -4.605  0.1520E+02  0.1647E+03
  -4.595  0.1538E+02  0.1649E+03
  -4.585  0.1554E+02  0.1651E+03
  -4.575  0.1569E+02  0.1652E+03
  -4.565  0.1583E+02  0.1654E+03
  -4.555  0.1595E+02  0.1655E+03
  -4.545  0.1606E+02  0.1657E+03
  -4.535  0.1615E+02  0.1658E+03
  -4.525  0.1623E+02  0.1660E+03
  -4.515  0.1629E+02  0.1662E+03
  -4.505  0.1634E+02  0.1663E+03
  -4.495  0.1636E+02  0.1665E+03
  -4.485  0.1637E+02  0.1667E+03
  -4.475  0.1635E+02  0.1668E+03
  -4.465  0.1632E+02  0.1670E+03
  -4.455  0.1626E+02  0.1672E+03
  -4.445  0.1617E+02  0.1673E+03
  -4.435  0.1606E+02  0.1675E+03
  -4.425  0.1591E+02  0.1676E+03
  -4.415  0.1574E+02  0.1678E+03
  -4.405  0.1554E+02  0.1679E+03
  -4.395  0.1532E+02  0.1681E+03
  -4.385  0.1506E+02  0.1683E+03
  -4.375  0.1478E+02  0.1684E+03
  -4.365  0.1448E+02  0.1685E+03
  -4.355  0.1416E+02  0.1687E+03
  -4.345  0.1384E+02  0.1688E+03
  -4.335  0.1351E+02  0.1690E+03
  -4.325  0.1320E+02  0.1691E+03
  -4.315  0.1290E+02  0.1692E+03
  -4.305  0.1264E+02  0.1693E+03
  -4.295  0.1243E+02  0.1695E+03
  -4.285  0.1227E+02  0.1696E+03
  -4.275  0.1218E+02  0.1697E+03
  -4.265  0.1217E+02  0.1698E+03
  -4.255  0.1225E+02  0.1700E+03
  -4.245  0.1242E+02  0.1701E+03
  -4.235  0.1269E+02  0.1702E+03
  -4.225  0.1305E+02  0.1703E+03
  -4.215  0.1352E+02  0.1705E+03
  -4.205  0.1407E+02  0.1706E+03
  -4.195  0.1469E+02  0.1708E+03
  -4.185  0.1539E+02  0.1709E+03
  -4.175  0.1615E+02  0.1711E+03
  -4.165  0.1694E+02  0.1712E+03
  -4.155  0.1777E+02  0.1714E+03
  -4.145  0.1860E+02  0.1716E+03
  -4.135  0.1943E+02  0.1718E+03
  -4.125  0.2024E+02  0.1720E+03
  -4.115  0.2103E+02  0.1722E+03
  -4.105  0.2177E+02  0.1724E+03
  -4.095  0.2246E+02  0.1727E+03
  -4.085  0.2310E+02  0.1729E+03
  -4.075  0.2367E+02  0.1731E+03
  -4.065  0.2418E+02  0.1734E+03
  -4.055  0.2462E+02  0.1736E+03
  -4.045  0.2500E+02  0.1739E+03
  -4.035  0.2530E+02  0.1741E+03
  -4.025  0.2555E+02  0.1744E+03
  -4.015  0.2573E+02  0.1746E+03
  -4.005  0.2586E+02  0.1749E+03
  -3.995  0.2594E+02  0.1752E+03
  -3.985  0.2597E+02  0.1754E+03
  -3.975  0.2596E+02  0.1757E+03
  -3.965  0.2592E+02  0.1759E+03
  -3.955  0.2585E+02  0.1762E+03
  -3.945  0.2575E+02  0.1764E+03
  -3.935  0.2564E+02  0.1767E+03
  -3.925  0.2552E+02  0.1770E+03
  -3.915  0.2539E+02  0.1772E+03
  -3.905  0.2526E+02  0.1775E+03
  -3.895  0.2512E+02  0.1777E+03
  -3.885  0.2499E+02  0.1780E+03
  -3.875  0.2485E+02  0.1782E+03
  -3.865  0.2472E+02  0.1785E+03
  -3.855  0.2459E+02  0.1787E+03
  -3.845  0.2445E+02  0.1790E+03
  -3.835  0.2432E+02  0.1792E+03
  -3.825  0.2418E+02  0.1794E+03
  -3.815  0.2403E+02  0.1797E+03
  -3.805  0.2388E+02  0.1799E+03
  -3.795  0.2372E+02  0.1802E+03
  -3.785  0.2356E+02  0.1804E+03
  -3.775  0.2341E+02  0.1806E+03
  -3.765  0.2326E+02  0.1809E+03
  -3.755  0.2312E+02  0.1811E+03
  -3.745  0.2301E+02  0.1813E+03
  -3.735  0.2292E+02  0.1815E+03
  -3.725  0.2287E+02  0.1818E+03
  -3.715  0.2286E+02  0.1820E+03
  -3.705  0.2290E+02  0.1822E+03
  -3.695  0.2300E+02  0.1825E+03
  -3.685  0.2316E+02  0.1827E+03
  -3.675  0.2339E+02  0.1829E+03
  -3.665  0.2368E+02  0.1832E+03
  -3.655  0.2403E+02  0.1834E+03
  -3.645  0.2445E+02  0.1836E+03
  -3.635  0.2492E+02  0.1839E+03
  -3.625  0.2544E+02  0.1842E+03
  -3.615  0.2600E+02  0.1844E+03
  -3.605  0.2659E+02  0.1847E+03
  -3.595  0.2720E+02  0.1850E+03
  -3.585  0.2782E+02  0.1852E+03
  -3.575  0.2843E+02  0.1855E+03
  -3.565  0.2904E+02  0.1858E+03
  -3.555  0.2963E+02  0.1861E+03
  -3.545  0.3019E+02  0.1864E+03
  -3.535  0.3071E+02  0.1867E+03
  -3.525  0.3120E+02  0.1870E+03
  -3.515  0.3165E+02  0.1873E+03
  -3.505  0.3204E+02  0.1877E+03
  -3.495  0.3239E+02  0.1880E+03
  -3.485  0.3269E+02  0.1883E+03
  -3.475  0.3293E+02  0.1886E+03
  -3.465  0.3313E+02  0.1890E+03
  -3.455  0.3327E+02  0.1893E+03
  -3.445  0.3335E+02  0.1896E+03
  -3.435  0.3338E+02  0.1900E+03
  -3.425  0.3336E+02  0.1903E+03
  -3.415  0.3327E+02  0.1906E+03
  -3.405  0.3314E+02  0.1910E+03
  -3.395  0.3295E+02  0.1913E+03
  -3.385  0.3270E+02  0.1916E+03
  -3.375  0.3241E+02  0.1919E+03
  -3.365  0.3207E+02  0.1923E+03
  -3.355  0.3169E+02  0.1926E+03
  -3.345  0.3129E+02  0.1929E+03
  -3.335  0.3086E+02  0.1932E+03
  -3.325  0.3042E+02  0.1935E+03
  -3.315  0.2997E+02  0.1938E+03
  -3.305  0.2953E+02  0.1941E+03
  -3.295  0.2912E+02  0.1944E+03
  -3.285  0.2872E+02  0.1947E+03
  -3.275  0.2836E+02  0.1950E+03
  -3.265  0.2804E+02  0.1952E+03
  -3.255  0.2775E+02  0.1955E+03
  -3.245  0.2751E+02  0.1958E+03
  -3.235  0.2730E+02  0.1961E+03
  -3.225  0.2713E+02  0.1963E+03
  -3.215  0.2698E+02  0.1966E+03
  -3.205  0.2684E+02  0.1969E+03
  -3.195  0.2670E+02  0.1972E+03
  -3.185  0.2655E+02  0.1974E+03
  -3.175  0.2637E+02  0.1977E+03
  -3.165  0.2616E+02  0.1979E+03
  -3.155  0.2588E+02  0.1982E+03
  -3.145  0.2554E+02  0.1985E+03
  -3.135  0.2512E+02  0.1987E+03
  -3.125  0.2461E+02  0.1990E+03
  -3.115  0.2401E+02  0.1992E+03
  -3.105  0.2331E+02  0.1994E+03
  -3.095  0.2253E+02  0.1997E+03
  -3.085  0.2165E+02  0.1999E+03
  -3.075  0.2068E+02  0.2001E+03
  -3.065  0.1965E+02  0.2003E+03
  -3.055  0.1855E+02  0.2005E+03
  -3.045  0.1740E+02  0.2006E+03
  -3.035  0.1622E+02  0.2008E+03
  -3.025  0.1502E+02  0.2009E+03
  -3.015  0.1383E+02  0.2011E+03
  -3.005  0.1266E+02  0.2012E+03
  -2.995  0.1152E+02  0.2013E+03
  -2.985  0.1045E+02  0.2014E+03
  -2.975  0.9445E+01  0.2015E+03
  -2.965  0.8531E+01  0.2016E+03
  -2.955  0.7720E+01  0.2017E+03
  -2.945  0.7025E+01  0.2018E+03
  -2.935  0.6456E+01  0.2018E+03
  -2.925  0.6022E+01  0.2019E+03
  -2.915  0.5730E+01  0.2019E+03
  -2.905  0.5584E+01  0.2020E+03
  -2.895  0.5587E+01  0.2020E+03
  -2.885  0.5739E+01  0.2021E+03
  -2.875  0.6038E+01  0.2022E+03
  -2.865  0.6479E+01  0.2022E+03
  -2.855  0.7056E+01  0.2023E+03
  -2.845  0.7759E+01  0.2024E+03
  -2.835  0.8575E+01  0.2025E+03
  -2.825  0.9491E+01  0.2026E+03
  -2.815  0.1049E+02  0.2027E+03
  -2.805  0.1156E+02  0.2028E+03
  -2.795  0.1267E+02  0.2029E+03
  -2.785  0.1381E+02  0.2030E+03
  -2.775  0.1496E+02  0.2032E+03
  -2.765  0.1609E+02  0.2034E+03
  -2.755  0.1720E+02  0.2035E+03
  -2.745  0.1826E+02  0.2037E+03
  -2.735  0.1927E+02  0.2039E+03
  -2.725  0.2020E+02  0.2041E+03
  -2.715  0.2106E+02  0.2043E+03
  -2.705  0.2184E+02  0.2045E+03
  -2.695  0.2254E+02  0.2048E+03
  -2.685  0.2315E+02  0.2050E+03
  -2.675  0.2369E+02  0.2052E+03
  -2.665  0.2416E+02  0.2055E+03
  -2.655  0.2457E+02  0.2057E+03
  -2.645  0.2492E+02  0.2060E+03
  -2.635  0.2523E+02  0.2062E+03
  -2.625  0.2549E+02  0.2065E+03
  -2.615  0.2573E+02  0.2067E+03
  -2.605  0.2594E+02  0.2070E+03
  -2.595  0.2614E+02  0.2072E+03
  -2.585  0.2633E+02  0.2075E+03
  -2.575  0.2652E+02  0.2078E+03
  -2.565  0.2670E+02  0.2080E+03
  -2.555  0.2689E+02  0.2083E+03
  -2.545  0.2709E+02  0.2086E+03
  -2.535  0.2731E+02  0.2089E+03
  -2.525  0.2754E+02  0.2091E+03
  -2.515  0.2781E+02  0.2094E+03
  -2.505  0.2810E+02  0.2097E+03
  -2.495  0.2842E+02  0.2100E+03
  -2.485  0.2879E+02  0.2103E+03
  -2.475  0.2919E+02  0.2106E+03
  -2.465  0.2964E+02  0.2109E+03
  -2.455  0.3012E+02  0.2112E+03
  -2.445  0.3065E+02  0.2115E+03
  -2.435  0.3122E+02  0.2118E+03
  -2.425  0.3181E+02  0.2121E+03
  -2.415  0.3243E+02  0.2124E+03
  -2.405  0.3306E+02  0.2127E+03
  -2.395  0.3369E+02  0.2131E+03
  -2.385  0.3431E+02  0.2134E+03
  -2.375  0.3492E+02  0.2138E+03
  -2.365  0.3549E+02  0.2141E+03
  -2.355  0.3603E+02  0.2145E+03
  -2.345  0.3652E+02  0.2149E+03
  -2.335  0.3696E+02  0.2152E+03
  -2.325  0.3734E+02  0.2156E+03
  -2.315  0.3766E+02  0.2160E+03
  -2.305  0.3792E+02  0.2164E+03
  -2.295  0.3813E+02  0.2167E+03
  -2.285  0.3829E+02  0.2171E+03
  -2.275  0.3839E+02  0.2175E+03
  -2.265  0.3846E+02  0.2179E+03
  -2.255  0.3849E+02  0.2183E+03
  -2.245  0.3848E+02  0.2187E+03
  -2.235  0.3845E+02  0.2190E+03
  -2.225  0.3839E+02  0.2194E+03
  -2.215  0.3831E+02  0.2198E+03
  -2.205  0.3820E+02  0.2202E+03
  -2.195  0.3807E+02  0.2206E+03
  -2.185  0.3791E+02  0.2210E+03
  -2.175  0.3772E+02  0.2213E+03
  -2.165  0.3750E+02  0.2217E+03
  -2.155  0.3724E+02  0.2221E+03
  -2.145  0.3695E+02  0.2224E+03
  -2.135  0.3662E+02  0.2228E+03
  -2.125  0.3624E+02  0.2232E+03
  -2.115  0.3583E+02  0.2235E+03
  -2.105  0.3538E+02  0.2239E+03
  -2.095  0.3489E+02  0.2242E+03
  -2.085  0.3438E+02  0.2246E+03
  -2.075  0.3383E+02  0.2249E+03
  -2.065  0.3327E+02  0.2252E+03
  -2.055  0.3270E+02  0.2256E+03
  -2.045  0.3212E+02  0.2259E+03
  -2.035  0.3154E+02  0.2262E+03
  -2.025  0.3098E+02  0.2265E+03
  -2.015  0.3043E+02  0.2268E+03
  -2.005  0.2991E+02  0.2271E+03
  -1.995  0.2942E+02  0.2274E+03
  -1.985  0.2897E+02  0.2277E+03
  -1.975  0.2857E+02  0.2280E+03
  -1.965  0.2821E+02  0.2283E+03
  -1.955  0.2791E+02  0.2286E+03
  -1.945  0.2766E+02  0.2288E+03
  -1.935  0.2747E+02  0.2291E+03
  -1.925  0.2733E+02  0.2294E+03
  -1.915  0.2723E+02  0.2297E+03
  -1.905  0.2719E+02  0.2299E+03
  -1.895  0.2718E+02  0.2302E+03
  -1.885  0.2720E+02  0.2305E+03
  -1.875  0.2724E+02  0.2307E+03
  -1.865  0.2729E+02  0.2310E+03
  -1.855  0.2735E+02  0.2313E+03
  -1.845  0.2739E+02  0.2316E+03
  -1.835  0.2741E+02  0.2318E+03
  -1.825  0.2739E+02  0.2321E+03
  -1.815  0.2734E+02  0.2324E+03
  -1.805  0.2723E+02  0.2327E+03
  -1.795  0.2707E+02  0.2329E+03
  -1.785  0.2684E+02  0.2332E+03
  -1.775  0.2655E+02  0.2335E+03
  -1.765  0.2619E+02  0.2337E+03
  -1.755  0.2576E+02  0.2340E+03
  -1.745  0.2527E+02  0.2342E+03
  -1.735  0.2471E+02  0.2345E+03
  -1.725  0.2409E+02  0.2347E+03
  -1.715  0.2341E+02  0.2350E+03
  -1.705  0.2268E+02  0.2352E+03
  -1.695  0.2190E+02  0.2354E+03
  -1.685  0.2108E+02  0.2356E+03
  -1.675  0.2022E+02  0.2358E+03
  -1.665  0.1932E+02  0.2360E+03
  -1.655  0.1839E+02  0.2362E+03
  -1.645  0.1743E+02  0.2364E+03
  -1.635  0.1645E+02  0.2365E+03
  -1.625  0.1546E+02  0.2367E+03
  -1.615  0.1445E+02  0.2368E+03
  -1.605  0.1344E+02  0.2370E+03
  -1.595  0.1243E+02  0.2371E+03
  -1.585  0.1143E+02  0.2372E+03
  -1.575  0.1044E+02  0.2373E+03
  -1.565  0.9477E+01  0.2374E+03
  -1.555  0.8546E+01  0.2375E+03
  -1.545  0.7654E+01  0.2376E+03
  -1.535  0.6809E+01  0.2376E+03
  -1.525  0.6019E+01  0.2377E+03
  -1.515  0.5288E+01  0.2377E+03
  -1.505  0.4623E+01  0.2378E+03
  -1.495  0.4029E+01  0.2378E+03
  -1.485  0.3508E+01  0.2379E+03
  -1.475  0.3065E+01  0.2379E+03
  -1.465  0.2700E+01  0.2379E+03
  -1.455  0.2416E+01  0.2379E+03
  -1.445  0.2215E+01  0.2380E+03
  -1.435  0.2095E+01  0.2380E+03
  -1.425  0.2060E+01  0.2380E+03
  -1.415  0.2107E+01  0.2380E+03
  -1.405  0.2239E+01  0.2381E+03
  -1.395  0.2454E+01  0.2381E+03
  -1.385  0.2753E+01  0.2381E+03
  -1.375  0.3133E+01  0.2381E+03
  -1.365  0.3594E+01  0.2382E+03
  -1.355  0.4131E+01  0.2382E+03
  -1.345  0.4742E+01  0.2383E+03
  -1.335  0.5419E+01  0.2383E+03
  -1.325  0.6156E+01  0.2384E+03
  -1.315  0.6943E+01  0.2384E+03
  -1.305  0.7768E+01  0.2385E+03
  -1.295  0.8621E+01  0.2386E+03
  -1.285  0.9485E+01  0.2387E+03
  -1.275  0.1035E+02  0.2388E+03
  -1.265  0.1119E+02  0.2389E+03
  -1.255  0.1199E+02  0.2390E+03
  -1.245  0.1274E+02  0.2392E+03
  -1.235  0.1343E+02  0.2393E+03
  -1.225  0.1403E+02  0.2394E+03
  -1.215  0.1453E+02  0.2396E+03
  -1.205  0.1494E+02  0.2397E+03
  -1.195  0.1523E+02  0.2399E+03
  -1.185  0.1541E+02  0.2400E+03
  -1.175  0.1548E+02  0.2402E+03
  -1.165  0.1543E+02  0.2404E+03
  -1.155  0.1529E+02  0.2405E+03
  -1.145  0.1506E+02  0.2407E+03
  -1.135  0.1474E+02  0.2408E+03
  -1.125  0.1437E+02  0.2409E+03
  -1.115  0.1395E+02  0.2411E+03
  -1.105  0.1350E+02  0.2412E+03
  -1.095  0.1305E+02  0.2414E+03
  -1.085  0.1259E+02  0.2415E+03
  -1.075  0.1216E+02  0.2416E+03
  -1.065  0.1176E+02  0.2417E+03
  -1.055  0.1140E+02  0.2418E+03
  -1.045  0.1109E+02  0.2419E+03
  -1.035  0.1082E+02  0.2421E+03
  -1.025  0.1060E+02  0.2422E+03
  -1.015  0.1043E+02  0.2423E+03
  -1.005  0.1028E+02  0.2424E+03
  -0.995  0.1016E+02  0.2425E+03
  -0.985  0.1005E+02  0.2426E+03
  -0.975  0.9931E+01  0.2427E+03
  -0.965  0.9803E+01  0.2428E+03
  -0.955  0.9649E+01  0.2429E+03
  -0.945  0.9459E+01  0.2430E+03
  -0.935  0.9226E+01  0.2430E+03
  -0.925  0.8945E+01  0.2431E+03
  -0.915  0.8612E+01  0.2432E+03
  -0.905  0.8230E+01  0.2433E+03
  -0.895  0.7800E+01  0.2434E+03
  -0.885  0.7329E+01  0.2435E+03
  -0.875  0.6824E+01  0.2435E+03
  -0.865  0.6295E+01  0.2436E+03
  -0.855  0.5750E+01  0.2436E+03
  -0.845  0.5202E+01  0.2437E+03
  -0.835  0.4658E+01  0.2437E+03
  -0.825  0.4129E+01  0.2438E+03
  -0.815  0.3622E+01  0.2438E+03
  -0.805  0.3144E+01  0.2439E+03
  -0.795  0.2701E+01  0.2439E+03
  -0.785  0.2296E+01  0.2439E+03
  -0.775  0.1931E+01  0.2439E+03
  -0.765  0.1607E+01  0.2439E+03
  -0.755  0.1323E+01  0.2440E+03
  -0.745  0.1078E+01  0.2440E+03
  -0.735  0.8688E+00  0.2440E+03
  -0.725  0.6927E+00  0.2440E+03
  -0.715  0.5464E+00  0.2440E+03
  -0.705  0.4264E+00  0.2440E+03
  -0.695  0.3291E+00  0.2440E+03
  -0.685  0.2514E+00  0.2440E+03
  -0.675  0.1899E+00  0.2440E+03
  -0.665  0.1419E+00  0.2440E+03
  -0.655  0.1049E+00  0.2440E+03
  -0.645  0.7676E-01  0.2440E+03
  -0.635  0.5554E-01  0.2440E+03
  -0.625  0.3976E-01  0.2440E+03
  -0.615  0.2815E-01  0.2440E+03
  -0.605  0.1972E-01  0.2440E+03
  -0.595  0.1367E-01  0.2440E+03
  -0.585  0.9369E-02  0.2440E+03
  -0.575  0.6354E-02  0.2440E+03
  -0.565  0.4263E-02  0.2440E+03
  -0.555  0.2829E-02  0.2440E+03
  -0.545  0.1858E-02  0.2440E+03
  -0.535  0.1207E-02  0.2440E+03
  -0.525  0.7752E-03  0.2440E+03
  -0.515  0.4928E-03  0.2440E+03
  -0.505  0.3098E-03  0.2440E+03
  -0.495  0.1927E-03  0.2440E+03
  -0.485  0.1186E-03  0.2440E+03
  -0.475  0.7219E-04  0.2440E+03
  -0.465  0.4348E-04  0.2440E+03
  -0.455  0.2590E-04  0.2440E+03
  -0.445  0.1526E-04  0.2440E+03
  -0.435  0.8898E-05  0.2440E+03
  -0.425  0.5132E-05  0.2440E+03
  -0.415  0.2928E-05  0.2440E+03
  -0.405  0.1652E-05  0.2440E+03
  -0.395  0.9226E-06  0.2440E+03
  -0.385  0.5096E-06  0.2440E+03
  -0.375  0.2784E-06  0.2440E+03
  -0.365  0.1505E-06  0.2440E+03
  -0.355  0.8048E-07  0.2440E+03
  -0.345  0.4257E-07  0.2440E+03
  -0.335  0.2228E-07  0.2440E+03
  -0.325  0.1153E-07  0.2440E+03
  -0.315  0.5906E-08  0.2440E+03
  -0.305  0.2992E-08  0.2440E+03
  -0.295  0.1499E-08  0.2440E+03
  -0.285  0.7433E-09  0.2440E+03
  -0.275  0.3646E-09  0.2440E+03
  -0.265  0.1769E-09  0.2440E+03
  -0.255  0.8489E-10  0.2440E+03
  -0.245  0.4031E-10  0.2440E+03
  -0.235  0.1893E-10  0.2440E+03
  -0.225  0.8797E-11  0.2440E+03
  -0.215  0.4044E-11  0.2440E+03
  -0.205  0.1839E-11  0.2440E+03
  -0.195  0.8271E-12  0.2440E+03
  -0.185  0.3681E-12  0.2440E+03
  -0.175  0.1620E-12  0.2440E+03
  -0.165  0.7056E-13  0.2440E+03
  -0.155  0.3040E-13  0.2440E+03
  -0.145  0.1295E-13  0.2440E+03
  -0.135  0.5462E-14  0.2440E+03
  -0.125  0.2278E-14  0.2440E+03
  -0.115  0.9398E-15  0.2440E+03
  -0.105  0.3836E-15  0.2440E+03
  -0.095  0.1549E-15  0.2440E+03
  -0.085  0.6186E-16  0.2440E+03
  -0.075  0.2444E-16  0.2440E+03
  -0.065  0.9555E-17  0.2440E+03
  -0.055  0.3695E-17  0.2440E+03
  -0.045  0.1413E-17  0.2440E+03
  -0.035  0.5349E-18  0.2440E+03
  -0.025  0.2002E-18  0.2440E+03
  -0.015  0.7415E-19  0.2440E+03
  -0.005  0.2717E-19  0.2440E+03
   0.005  0.9845E-20  0.2440E+03
   0.015  0.3530E-20  0.2440E+03
   0.025  0.1252E-20  0.2440E+03
   0.035  0.4392E-21  0.2440E+03
   0.045  0.1524E-21  0.2440E+03
   0.055  0.5234E-22  0.2440E+03
   0.065  0.1778E-22  0.2440E+03
   0.075  0.5974E-23  0.2440E+03
   0.085  0.1986E-23  0.2440E+03
   0.095  0.6530E-24  0.2440E+03
   0.105  0.2124E-24  0.2440E+03
   0.115  0.6836E-25  0.2440E+03
   0.125  0.2176E-25  0.2440E+03
   0.135  0.6854E-26  0.2440E+03
   0.145  0.2137E-26  0.2440E+03
   0.155  0.6653E-27  0.2440E+03
   0.165  0.2250E-27  0.2440E+03
   0.175  0.1420E-27  0.2440E+03
   0.185  0.2875E-27  0.2440E+03
   0.195  0.8866E-27  0.2440E+03
   0.205  0.2854E-26  0.2440E+03
   0.215  0.9131E-26  0.2440E+03
   0.225  0.2891E-25  0.2440E+03
   0.235  0.9059E-25  0.2440E+03
   0.245  0.2807E-24  0.2440E+03
   0.255  0.8608E-24  0.2440E+03
   0.265  0.2611E-23  0.2440E+03
   0.275  0.7833E-23  0.2440E+03
   0.285  0.2325E-22  0.2440E+03
   0.295  0.6827E-22  0.2440E+03
   0.305  0.1983E-21  0.2440E+03
   0.315  0.5698E-21  0.2440E+03
   0.325  0.1620E-20  0.2440E+03
   0.335  0.4555E-20  0.2440E+03
   0.345  0.1267E-19  0.2440E+03
   0.355  0.3487E-19  0.2440E+03
   0.365  0.9494E-19  0.2440E+03
   0.375  0.2557E-18  0.2440E+03
   0.385  0.6813E-18  0.2440E+03
   0.395  0.1796E-17  0.2440E+03
   0.405  0.4682E-17  0.2440E+03
   0.415  0.1208E-16  0.2440E+03
   0.425  0.3081E-16  0.2440E+03
   0.435  0.7778E-16  0.2440E+03
   0.445  0.1942E-15  0.2440E+03
   0.455  0.4798E-15  0.2440E+03
   0.465  0.1173E-14  0.2440E+03
   0.475  0.2835E-14  0.2440E+03
   0.485  0.6780E-14  0.2440E+03
   0.495  0.1604E-13  0.2440E+03
   0.505  0.3754E-13  0.2440E+03
   0.515  0.8693E-13  0.2440E+03
   0.525  0.1991E-12  0.2440E+03
   0.535  0.4512E-12  0.2440E+03
   0.545  0.1011E-11  0.2440E+03
   0.555  0.2243E-11  0.2440E+03
   0.565  0.4920E-11  0.2440E+03
   0.575  0.1068E-10  0.2440E+03
   0.585  0.2293E-10  0.2440E+03
   0.595  0.4869E-10  0.2440E+03
   0.605  0.1023E-09  0.2440E+03
   0.615  0.2127E-09  0.2440E+03
   0.625  0.4374E-09  0.2440E+03
   0.635  0.8897E-09  0.2440E+03
   0.645  0.1791E-08  0.2440E+03
   0.655  0.3565E-08  0.2440E+03
   0.665  0.7022E-08  0.2440E+03
   0.675  0.1368E-07  0.2440E+03
   0.685  0.2638E-07  0.2440E+03
   0.695  0.5030E-07  0.2440E+03
   0.705  0.9490E-07  0.2440E+03
   0.715  0.1771E-06  0.2440E+03
   0.725  0.3271E-06  0.2440E+03
   0.735  0.5975E-06  0.2440E+03
   0.745  0.1080E-05  0.2440E+03
   0.755  0.1931E-05  0.2440E+03
   0.765  0.3415E-05  0.2440E+03
   0.775  0.5977E-05  0.2440E+03
   0.785  0.1035E-04  0.2440E+03
   0.795  0.1773E-04  0.2440E+03
   0.805  0.3004E-04  0.2440E+03
   0.815  0.5037E-04  0.2440E+03
   0.825  0.8356E-04  0.2440E+03
   0.835  0.1371E-03  0.2440E+03
   0.845  0.2227E-03  0.2440E+03
   0.855  0.3578E-03  0.2440E+03
   0.865  0.5687E-03  0.2440E+03
   0.875  0.8945E-03  0.2440E+03
   0.885  0.1392E-02  0.2440E+03
   0.895  0.2143E-02  0.2440E+03
   0.905  0.3265E-02  0.2440E+03
   0.915  0.4922E-02  0.2440E+03
   0.925  0.7342E-02  0.2440E+03
   0.935  0.1084E-01  0.2440E+03
   0.945  0.1583E-01  0.2440E+03
   0.955  0.2288E-01  0.2440E+03
   0.965  0.3272E-01  0.2440E+03
   0.975  0.4630E-01  0.2440E+03
   0.985  0.6485E-01  0.2440E+03
   0.995  0.8988E-01  0.2440E+03
   1.005  0.1233E+00  0.2440E+03
   1.015  0.1674E+00  0.2440E+03
   1.025  0.2249E+00  0.2440E+03
   1.035  0.2991E+00  0.2440E+03
   1.045  0.3937E+00  0.2440E+03
   1.055  0.5129E+00  0.2440E+03
   1.065  0.6614E+00  0.2440E+03
   1.075  0.8443E+00  0.2440E+03
   1.085  0.1067E+01  0.2440E+03
   1.095  0.1335E+01  0.2441E+03
   1.105  0.1653E+01  0.2441E+03
   1.115  0.2026E+01  0.2441E+03
   1.125  0.2460E+01  0.2441E+03
   1.135  0.2956E+01  0.2442E+03
   1.145  0.3518E+01  0.2442E+03
   1.155  0.4146E+01  0.2442E+03
   1.165  0.4838E+01  0.2443E+03
   1.175  0.5590E+01  0.2443E+03
   1.185  0.6397E+01  0.2444E+03
   1.195  0.7249E+01  0.2445E+03
   1.205  0.8137E+01  0.2445E+03
   1.215  0.9046E+01  0.2446E+03
   1.225  0.9960E+01  0.2447E+03
   1.235  0.1086E+02  0.2448E+03
   1.245  0.1173E+02  0.2450E+03
   1.255  0.1256E+02  0.2451E+03
   1.265  0.1331E+02  0.2452E+03
   1.275  0.1398E+02  0.2454E+03
   1.285  0.1454E+02  0.2455E+03
   1.295  0.1499E+02  0.2457E+03
   1.305  0.1530E+02  0.2458E+03
   1.315  0.1548E+02  0.2460E+03
   1.325  0.1551E+02  0.2461E+03
   1.335  0.1540E+02  0.2463E+03
   1.345  0.1514E+02  0.2464E+03
   1.355  0.1475E+02  0.2466E+03
   1.365  0.1424E+02  0.2467E+03
   1.375  0.1362E+02  0.2469E+03
   1.385  0.1291E+02  0.2470E+03
   1.395  0.1212E+02  0.2471E+03
   1.405  0.1127E+02  0.2472E+03
   1.415  0.1040E+02  0.2473E+03
   1.425  0.9502E+01  0.2474E+03
   1.435  0.8613E+01  0.2475E+03
   1.445  0.7746E+01  0.2476E+03
   1.455  0.6917E+01  0.2476E+03
   1.465  0.6142E+01  0.2477E+03
   1.475  0.5433E+01  0.2478E+03
   1.485  0.4799E+01  0.2478E+03
   1.495  0.4249E+01  0.2479E+03
   1.505  0.3789E+01  0.2479E+03
   1.515  0.3421E+01  0.2479E+03
   1.525  0.3149E+01  0.2480E+03
   1.535  0.2972E+01  0.2480E+03
   1.545  0.2889E+01  0.2480E+03
   1.555  0.2898E+01  0.2480E+03
   1.565  0.2994E+01  0.2481E+03
   1.575  0.3171E+01  0.2481E+03
   1.585  0.3423E+01  0.2481E+03
   1.595  0.3742E+01  0.2482E+03
   1.605  0.4117E+01  0.2482E+03
   1.615  0.4537E+01  0.2483E+03
   1.625  0.4991E+01  0.2483E+03
   1.635  0.5464E+01  0.2484E+03
   1.645  0.5942E+01  0.2484E+03
   1.655  0.6410E+01  0.2485E+03
   1.665  0.6855E+01  0.2486E+03
   1.675  0.7260E+01  0.2486E+03
   1.685  0.7613E+01  0.2487E+03
   1.695  0.7903E+01  0.2488E+03
   1.705  0.8118E+01  0.2489E+03
   1.715  0.8252E+01  0.2490E+03
   1.725  0.8299E+01  0.2490E+03
   1.735  0.8258E+01  0.2491E+03
   1.745  0.8129E+01  0.2492E+03
   1.755  0.7917E+01  0.2493E+03
   1.765  0.7628E+01  0.2494E+03
   1.775  0.7270E+01  0.2494E+03
   1.785  0.6855E+01  0.2495E+03
   1.795  0.6394E+01  0.2496E+03
   1.805  0.5900E+01  0.2496E+03
   1.815  0.5386E+01  0.2497E+03
   1.825  0.4864E+01  0.2497E+03
   1.835  0.4345E+01  0.2498E+03
   1.845  0.3840E+01  0.2498E+03
   1.855  0.3357E+01  0.2498E+03
   1.865  0.2903E+01  0.2499E+03
   1.875  0.2484E+01  0.2499E+03
   1.885  0.2102E+01  0.2499E+03
   1.895  0.1760E+01  0.2499E+03
   1.905  0.1458E+01  0.2499E+03
   1.915  0.1194E+01  0.2500E+03
   1.925  0.9682E+00  0.2500E+03
   1.935  0.7763E+00  0.2500E+03
   1.945  0.6158E+00  0.2500E+03
   1.955  0.4832E+00  0.2500E+03
   1.965  0.3751E+00  0.2500E+03
   1.975  0.2881E+00  0.2500E+03
   1.985  0.2188E+00  0.2500E+03
   1.995  0.1645E+00  0.2500E+03
   2.005  0.1223E+00  0.2500E+03
   2.015  0.8992E-01  0.2500E+03
   2.025  0.6543E-01  0.2500E+03
   2.035  0.4709E-01  0.2500E+03
   2.045  0.3353E-01  0.2500E+03
   2.055  0.2362E-01  0.2500E+03
   2.065  0.1646E-01  0.2500E+03
   2.075  0.1135E-01  0.2500E+03
   2.085  0.7740E-02  0.2500E+03
   2.095  0.5228E-02  0.2500E+03
   2.105  0.3501E-02  0.2500E+03
   2.115  0.2331E-02  0.2500E+03
   2.125  0.1555E-02  0.2500E+03
   2.135  0.1060E-02  0.2500E+03
   2.145  0.7670E-03  0.2500E+03
   2.155  0.6302E-03  0.2500E+03
   2.165  0.6267E-03  0.2500E+03
   2.175  0.7560E-03  0.2500E+03
   2.185  0.1040E-02  0.2500E+03
   2.195  0.1524E-02  0.2500E+03
   2.205  0.2284E-02  0.2500E+03
   2.215  0.3434E-02  0.2500E+03
   2.225  0.5136E-02  0.2500E+03
   2.235  0.7615E-02  0.2500E+03
   2.245  0.1118E-01  0.2500E+03
   2.255  0.1625E-01  0.2500E+03
   2.265  0.2337E-01  0.2500E+03
   2.275  0.3324E-01  0.2500E+03
   2.285  0.4680E-01  0.2500E+03
   2.295  0.6519E-01  0.2500E+03
   2.305  0.8985E-01  0.2500E+03
   2.315  0.1225E+00  0.2500E+03
   2.325  0.1654E+00  0.2500E+03
   2.335  0.2209E+00  0.2500E+03
   2.345  0.2919E+00  0.2500E+03
   2.355  0.3817E+00  0.2500E+03
   2.365  0.4941E+00  0.2500E+03
   2.375  0.6330E+00  0.2500E+03
   2.385  0.8026E+00  0.2500E+03
   2.395  0.1007E+01  0.2500E+03
   2.405  0.1251E+01  0.2501E+03
   2.415  0.1539E+01  0.2501E+03
   2.425  0.1874E+01  0.2501E+03
   2.435  0.2260E+01  0.2501E+03
   2.445  0.2698E+01  0.2501E+03
   2.455  0.3189E+01  0.2502E+03
   2.465  0.3735E+01  0.2502E+03
   2.475  0.4331E+01  0.2503E+03
   2.485  0.4977E+01  0.2503E+03
   2.495  0.5665E+01  0.2504E+03
   2.505  0.6390E+01  0.2504E+03
   2.515  0.7144E+01  0.2505E+03
   2.525  0.7915E+01  0.2506E+03
   2.535  0.8693E+01  0.2507E+03
   2.545  0.9467E+01  0.2508E+03
   2.555  0.1022E+02  0.2509E+03
   2.565  0.1095E+02  0.2510E+03
   2.575  0.1163E+02  0.2511E+03
   2.585  0.1225E+02  0.2512E+03
   2.595  0.1281E+02  0.2513E+03
   2.605  0.1328E+02  0.2515E+03
   2.615  0.1367E+02  0.2516E+03
   2.625  0.1397E+02  0.2517E+03
   2.635  0.1416E+02  0.2519E+03
   2.645  0.1424E+02  0.2520E+03
   2.655  0.1422E+02  0.2522E+03
   2.665  0.1410E+02  0.2523E+03
   2.675  0.1386E+02  0.2524E+03
   2.685  0.1353E+02  0.2526E+03
   2.695  0.1311E+02  0.2527E+03
   2.705  0.1260E+02  0.2528E+03
   2.715  0.1202E+02  0.2530E+03
   2.725  0.1137E+02  0.2531E+03
   2.735  0.1067E+02  0.2532E+03
   2.745  0.9936E+01  0.2533E+03
   2.755  0.9172E+01  0.2534E+03
   2.765  0.8395E+01  0.2535E+03
   2.775  0.7618E+01  0.2535E+03
   2.785  0.6852E+01  0.2536E+03
   2.795  0.6109E+01  0.2537E+03
   2.805  0.5397E+01  0.2537E+03
   2.815  0.4724E+01  0.2538E+03
   2.825  0.4097E+01  0.2538E+03
   2.835  0.3520E+01  0.2538E+03
   2.845  0.2995E+01  0.2539E+03
   2.855  0.2524E+01  0.2539E+03
   2.865  0.2107E+01  0.2539E+03
   2.875  0.1742E+01  0.2539E+03
   2.885  0.1426E+01  0.2539E+03
   2.895  0.1157E+01  0.2540E+03
   2.905  0.9311E+00  0.2540E+03
   2.915  0.7435E+00  0.2540E+03
   2.925  0.5907E+00  0.2540E+03
   2.935  0.4688E+00  0.2540E+03
   2.945  0.3743E+00  0.2540E+03
   2.955  0.3042E+00  0.2540E+03
   2.965  0.2560E+00  0.2540E+03
   2.975  0.2277E+00  0.2540E+03
   2.985  0.2183E+00  0.2540E+03
   2.995  0.2272E+00  0.2540E+03
   3.005  0.2547E+00  0.2540E+03
   3.015  0.3018E+00  0.2540E+03
   3.025  0.3699E+00  0.2540E+03
   3.035  0.4611E+00  0.2540E+03
   3.045  0.5780E+00  0.2540E+03
   3.055  0.7234E+00  0.2540E+03
   3.065  0.9002E+00  0.2540E+03
   3.075  0.1111E+01  0.2541E+03
   3.085  0.1359E+01  0.2541E+03
   3.095  0.1646E+01  0.2541E+03
   3.105  0.1973E+01  0.2541E+03
   3.115  0.2340E+01  0.2541E+03
   3.125  0.2745E+01  0.2542E+03
   3.135  0.3186E+01  0.2542E+03
   3.145  0.3659E+01  0.2542E+03
   3.155  0.4157E+01  0.2543E+03
   3.165  0.4672E+01  0.2543E+03
   3.175  0.5194E+01  0.2544E+03
   3.185  0.5712E+01  0.2544E+03
   3.195  0.6215E+01  0.2545E+03
   3.205  0.6690E+01  0.2545E+03
   3.215  0.7123E+01  0.2546E+03
   3.225  0.7503E+01  0.2547E+03
   3.235  0.7818E+01  0.2548E+03
   3.245  0.8059E+01  0.2549E+03
   3.255  0.8219E+01  0.2549E+03
   3.265  0.8292E+01  0.2550E+03
   3.275  0.8277E+01  0.2551E+03
   3.285  0.8173E+01  0.2552E+03
   3.295  0.7985E+01  0.2553E+03
   3.305  0.7719E+01  0.2553E+03
   3.315  0.7385E+01  0.2554E+03
   3.325  0.6992E+01  0.2555E+03
   3.335  0.6554E+01  0.2555E+03
   3.345  0.6084E+01  0.2556E+03
   3.355  0.5596E+01  0.2557E+03
   3.365  0.5105E+01  0.2557E+03
   3.375  0.4625E+01  0.2558E+03
   3.385  0.4167E+01  0.2558E+03
   3.395  0.3745E+01  0.2558E+03
   3.405  0.3368E+01  0.2559E+03
   3.415  0.3046E+01  0.2559E+03
   3.425  0.2787E+01  0.2559E+03
   3.435  0.2597E+01  0.2560E+03
   3.445  0.2482E+01  0.2560E+03
   3.455  0.2445E+01  0.2560E+03
   3.465  0.2489E+01  0.2560E+03
   3.475  0.2616E+01  0.2561E+03
   3.485  0.2826E+01  0.2561E+03
   3.495  0.3118E+01  0.2561E+03
   3.505  0.3492E+01  0.2562E+03
   3.515  0.3943E+01  0.2562E+03
   3.525  0.4467E+01  0.2562E+03
   3.535  0.5060E+01  0.2563E+03
   3.545  0.5712E+01  0.2563E+03
   3.555  0.6415E+01  0.2564E+03
   3.565  0.7160E+01  0.2565E+03
   3.575  0.7934E+01  0.2566E+03
   3.585  0.8724E+01  0.2566E+03
   3.595  0.9517E+01  0.2567E+03
   3.605  0.1030E+02  0.2568E+03
   3.615  0.1105E+02  0.2570E+03
   3.625  0.1176E+02  0.2571E+03
   3.635  0.1242E+02  0.2572E+03
   3.645  0.1301E+02  0.2573E+03
   3.655  0.1351E+02  0.2575E+03
   3.665  0.1393E+02  0.2576E+03
   3.675  0.1424E+02  0.2577E+03
   3.685  0.1445E+02  0.2579E+03
   3.695  0.1454E+02  0.2580E+03
   3.705  0.1452E+02  0.2582E+03
   3.715  0.1440E+02  0.2583E+03
   3.725  0.1416E+02  0.2585E+03
   3.735  0.1383E+02  0.2586E+03
   3.745  0.1341E+02  0.2587E+03
   3.755  0.1290E+02  0.2589E+03
   3.765  0.1234E+02  0.2590E+03
   3.775  0.1172E+02  0.2591E+03
   3.785  0.1108E+02  0.2592E+03
   3.795  0.1041E+02  0.2593E+03
   3.805  0.9758E+01  0.2594E+03
   3.815  0.9125E+01  0.2595E+03
   3.825  0.8533E+01  0.2596E+03
   3.835  0.7998E+01  0.2597E+03
   3.845  0.7537E+01  0.2598E+03
   3.855  0.7162E+01  0.2598E+03
   3.865  0.6885E+01  0.2599E+03
   3.875  0.6714E+01  0.2600E+03
   3.885  0.6655E+01  0.2600E+03
   3.895  0.6709E+01  0.2601E+03
   3.905  0.6877E+01  0.2602E+03
   3.915  0.7155E+01  0.2602E+03
   3.925  0.7536E+01  0.2603E+03
   3.935  0.8011E+01  0.2604E+03
   3.945  0.8567E+01  0.2605E+03
   3.955  0.9193E+01  0.2606E+03
   3.965  0.9871E+01  0.2607E+03
   3.975  0.1059E+02  0.2608E+03
   3.985  0.1132E+02  0.2609E+03
   3.995  0.1206E+02  0.2610E+03
   4.005  0.1280E+02  0.2611E+03
   4.015  0.1350E+02  0.2613E+03
   4.025  0.1417E+02  0.2614E+03
   4.035  0.1479E+02  0.2616E+03
   4.045  0.1536E+02  0.2617E+03
   4.055  0.1587E+02  0.2619E+03
   4.065  0.1632E+02  0.2620E+03
   4.075  0.1671E+02  0.2622E+03
   4.085  0.1704E+02  0.2624E+03
   4.095  0.1733E+02  0.2625E+03
   4.105  0.1757E+02  0.2627E+03
   4.115  0.1778E+02  0.2629E+03
   4.125  0.1798E+02  0.2631E+03
   4.135  0.1817E+02  0.2633E+03
   4.145  0.1836E+02  0.2634E+03
   4.155  0.1856E+02  0.2636E+03
   4.165  0.1879E+02  0.2638E+03
   4.175  0.1905E+02  0.2640E+03
   4.185  0.1935E+02  0.2642E+03
   4.195  0.1968E+02  0.2644E+03
   4.205  0.2004E+02  0.2646E+03
   4.215  0.2044E+02  0.2648E+03
   4.225  0.2085E+02  0.2650E+03
   4.235  0.2128E+02  0.2652E+03
   4.245  0.2170E+02  0.2654E+03
   4.255  0.2210E+02  0.2657E+03
   4.265  0.2246E+02  0.2659E+03
   4.275  0.2276E+02  0.2661E+03
   4.285  0.2299E+02  0.2663E+03
   4.295  0.2313E+02  0.2666E+03
   4.305  0.2315E+02  0.2668E+03
   4.315  0.2306E+02  0.2670E+03
   4.325  0.2283E+02  0.2673E+03
   4.335  0.2247E+02  0.2675E+03
   4.345  0.2197E+02  0.2677E+03
   4.355  0.2134E+02  0.2679E+03
   4.365  0.2058E+02  0.2681E+03
   4.375  0.1972E+02  0.2683E+03
   4.385  0.1876E+02  0.2685E+03
   4.395  0.1773E+02  0.2687E+03
   4.405  0.1665E+02  0.2689E+03
   4.415  0.1555E+02  0.2690E+03
   4.425  0.1446E+02  0.2692E+03
   4.435  0.1340E+02  0.2693E+03
   4.445  0.1240E+02  0.2694E+03
   4.455  0.1149E+02  0.2695E+03
   4.465  0.1069E+02  0.2696E+03
   4.475  0.1001E+02  0.2697E+03
   4.485  0.9479E+01  0.2698E+03
   4.495  0.9099E+01  0.2699E+03
   4.505  0.8879E+01  0.2700E+03
   4.515  0.8821E+01  0.2701E+03
   4.525  0.8921E+01  0.2702E+03
   4.535  0.9171E+01  0.2703E+03
   4.545  0.9559E+01  0.2704E+03
   4.555  0.1007E+02  0.2705E+03
   4.565  0.1068E+02  0.2706E+03
   4.575  0.1137E+02  0.2707E+03
   4.585  0.1212E+02  0.2708E+03
   4.595  0.1289E+02  0.2709E+03
   4.605  0.1367E+02  0.2711E+03
   4.615  0.1442E+02  0.2712E+03
   4.625  0.1513E+02  0.2714E+03
   4.635  0.1578E+02  0.2715E+03
   4.645  0.1634E+02  0.2717E+03
   4.655  0.1681E+02  0.2719E+03
   4.665  0.1716E+02  0.2720E+03
   4.675  0.1741E+02  0.2722E+03
   4.685  0.1755E+02  0.2724E+03
   4.695  0.1757E+02  0.2726E+03
   4.705  0.1750E+02  0.2727E+03
   4.715  0.1734E+02  0.2729E+03
   4.725  0.1709E+02  0.2731E+03
   4.735  0.1679E+02  0.2733E+03
   4.745  0.1643E+02  0.2734E+03
   4.755  0.1603E+02  0.2736E+03
   4.765  0.1560E+02  0.2737E+03
   4.775  0.1516E+02  0.2739E+03
   4.785  0.1471E+02  0.2740E+03
   4.795  0.1425E+02  0.2742E+03
   4.805  0.1379E+02  0.2743E+03
   4.815  0.1333E+02  0.2744E+03
   4.825  0.1287E+02  0.2746E+03
   4.835  0.1241E+02  0.2747E+03
   4.845  0.1195E+02  0.2748E+03
   4.855  0.1149E+02  0.2749E+03
   4.865  0.1103E+02  0.2750E+03
   4.875  0.1058E+02  0.2751E+03
   4.885  0.1013E+02  0.2753E+03
   4.895  0.9702E+01  0.2753E+03
   4.905  0.9299E+01  0.2754E+03
   4.915  0.8936E+01  0.2755E+03
   4.925  0.8624E+01  0.2756E+03
   4.935  0.8378E+01  0.2757E+03
   4.945  0.8212E+01  0.2758E+03
   4.955  0.8140E+01  0.2759E+03
   4.965  0.8174E+01  0.2759E+03
   4.975  0.8324E+01  0.2760E+03
   4.985  0.8597E+01  0.2761E+03
   4.995  0.8998E+01  0.2762E+03
   5.005  0.9528E+01  0.2763E+03
   5.015  0.1018E+02  0.2764E+03
   5.025  0.1095E+02  0.2765E+03
   5.035  0.1183E+02  0.2766E+03
   5.045  0.1280E+02  0.2768E+03
   5.055  0.1384E+02  0.2769E+03
   5.065  0.1493E+02  0.2770E+03
   5.075  0.1605E+02  0.2772E+03
   5.085  0.1719E+02  0.2774E+03
   5.095  0.1831E+02  0.2776E+03
   5.105  0.1939E+02  0.2778E+03
   5.115  0.2042E+02  0.2780E+03
   5.125  0.2137E+02  0.2782E+03
   5.135  0.2223E+02  0.2784E+03
   5.145  0.2299E+02  0.2786E+03
   5.155  0.2364E+02  0.2789E+03
   5.165  0.2416E+02  0.2791E+03
   5.175  0.2456E+02  0.2793E+03
   5.185  0.2483E+02  0.2796E+03
   5.195  0.2496E+02  0.2798E+03
   5.205  0.2497E+02  0.2801E+03
   5.215  0.2485E+02  0.2803E+03
   5.225  0.2461E+02  0.2806E+03
   5.235  0.2425E+02  0.2808E+03
   5.245  0.2378E+02  0.2811E+03
   5.255  0.2319E+02  0.2813E+03
   5.265  0.2251E+02  0.2815E+03
   5.275  0.2172E+02  0.2817E+03
   5.285  0.2085E+02  0.2820E+03
   5.295  0.1990E+02  0.2822E+03
   5.305  0.1888E+02  0.2823E+03
   5.315  0.1780E+02  0.2825E+03
   5.325  0.1667E+02  0.2827E+03
   5.335  0.1551E+02  0.2828E+03
   5.345  0.1433E+02  0.2830E+03
   5.355  0.1314E+02  0.2831E+03
   5.365  0.1197E+02  0.2832E+03
   5.375  0.1081E+02  0.2833E+03
   5.385  0.9688E+01  0.2834E+03
   5.395  0.8611E+01  0.2835E+03
   5.405  0.7591E+01  0.2836E+03
   5.415  0.6633E+01  0.2837E+03
   5.425  0.5746E+01  0.2837E+03
   5.435  0.4934E+01  0.2838E+03
   5.445  0.4198E+01  0.2838E+03
   5.455  0.3539E+01  0.2839E+03
   5.465  0.2956E+01  0.2839E+03
   5.475  0.2446E+01  0.2839E+03
   5.485  0.2004E+01  0.2839E+03
   5.495  0.1627E+01  0.2839E+03
   5.505  0.1308E+01  0.2840E+03
   5.515  0.1041E+01  0.2840E+03
   5.525  0.8203E+00  0.2840E+03
   5.535  0.6401E+00  0.2840E+03
   5.545  0.4945E+00  0.2840E+03
   5.555  0.3782E+00  0.2840E+03
   5.565  0.2863E+00  0.2840E+03
   5.575  0.2146E+00  0.2840E+03
   5.585  0.1592E+00  0.2840E+03
   5.595  0.1169E+00  0.2840E+03
   5.605  0.8493E-01  0.2840E+03
   5.615  0.6108E-01  0.2840E+03
   5.625  0.4348E-01  0.2840E+03
   5.635  0.3063E-01  0.2840E+03
   5.645  0.2135E-01  0.2840E+03
   5.655  0.1473E-01  0.2840E+03
   5.665  0.1006E-01  0.2840E+03
   5.675  0.6795E-02  0.2840E+03
   5.685  0.4542E-02  0.2840E+03
   5.695  0.3005E-02  0.2840E+03
   5.705  0.1967E-02  0.2840E+03
   5.715  0.1274E-02  0.2840E+03
